title:_Mot_3, start timestamp:1626191536.751976, stop timestamp:1626191544.817391, headset type:EPOCFLEX, headset serial:F00001B8, headset firmware:f14, channels:111, sampling rate:128, samples:1039      , version:2.1, 
Timestamp,EEG.Counter,EEG.Interpolated,EEG.Cz,EEG.Fz,EEG.Fp1,EEG.F7,EEG.F3,EEG.FC1,EEG.C3,EEG.FC5,EEG.FT9,EEG.T7,EEG.CP5,EEG.CP1,EEG.P3,EEG.P7,EEG.PO9,EEG.O1,EEG.Pz,EEG.Oz,EEG.O2,EEG.PO10,EEG.P8,EEG.P4,EEG.CP2,EEG.CP6,EEG.T8,EEG.FT10,EEG.FC6,EEG.C4,EEG.FC2,EEG.F4,EEG.F8,EEG.Fp2,EEG.HighBitFlex,EEG.SaturationFlag,EEG.RawCq,EEG.Battery,EEG.BatteryPercent,MarkerIndex,MarkerType,MarkerValueInt,EEG.MarkerHardware,CQ.Cz,CQ.Fz,CQ.Fp1,CQ.F7,CQ.F3,CQ.FC1,CQ.C3,CQ.FC5,CQ.FT9,CQ.T7,CQ.CP5,CQ.CP1,CQ.P3,CQ.P7,CQ.PO9,CQ.O1,CQ.Pz,CQ.Oz,CQ.O2,CQ.PO10,CQ.P8,CQ.P4,CQ.CP2,CQ.CP6,CQ.T8,CQ.FT10,CQ.FC6,CQ.C4,CQ.FC2,CQ.F4,CQ.F8,CQ.Fp2,CQ.Overall,EQ.SampleRateQuality,EQ.OVERALL,EQ.Cz,EQ.Fz,EQ.Fp1,EQ.F7,EQ.F3,EQ.FC1,EQ.C3,EQ.FC5,EQ.FT9,EQ.T7,EQ.CP5,EQ.CP1,EQ.P3,EQ.P7,EQ.PO9,EQ.O1,EQ.Pz,EQ.Oz,EQ.O2,EQ.PO10,EQ.P8,EQ.P4,EQ.CP2,EQ.CP6,EQ.T8,EQ.FT10,EQ.FC6,EQ.C4,EQ.FC2,EQ.F4,EQ.F8,EQ.Fp2
1626191536.751976,16.000000,0.000000,42.653145,44.163994,-39.055824,15.198593,35.248772,34.393246,54.885468,46.935268,14.540880,28.603205,56.731331,46.946239,46.981358,35.293053,22.225573,39.627888,52.536194,31.180471,19.003876,-6.397833,3.904014,29.810343,44.404503,39.450951,-12.864793,-3.492495,15.868023,65.259651,61.463909,42.336105,-32.423393,-136.665039,0.000000,0.000000,207.000000,1.000000,15.000000,,,,0.000000,4.000000,4.000000,4.000000,4.000000,4.000000,4.000000,4.000000,4.000000,4.000000,4.000000,4.000000,4.000000,4.000000,4.000000,4.000000,4.000000,4.000000,4.000000,4.000000,4.000000,4.000000,4.000000,4.000000,4.000000,4.000000,4.000000,4.000000,4.000000,4.000000,4.000000,4.000000,4.000000,100.000000,,,,,,,,,,,,,,,,,,,,,,,,,,,,,,,,,,
1626191536.759689,17.000000,0.000000,49.782799,48.730598,-30.307539,19.281857,46.484291,39.481930,56.367504,52.011410,16.063263,30.623833,58.211525,48.948524,43.860531,35.770065,21.178732,41.125179,51.971348,29.100061,16.935640,-7.928359,2.875495,29.268225,48.458557,40.948421,-13.364236,-1.952079,28.659847,71.342087,68.574753,49.978386,-25.730968,-118.597610,0.000000,0.000000,198.000000,1.000000,15.000000,,,,0.000000,4.000000,4.000000,4.000000,4.000000,4.000000,4.000000,4.000000,4.000000,4.000000,4.000000,4.000000,4.000000,4.000000,4.000000,4.000000,4.000000,4.000000,4.000000,4.000000,4.000000,4.000000,4.000000,4.000000,4.000000,4.000000,4.000000,4.000000,4.000000,4.000000,4.000000,4.000000,4.000000,100.000000,,,,,,,,,,,,,,,,,,,,,,,,,,,,,,,,,,
1626191536.767502,18.000000,0.000000,47.683784,45.095715,-32.326462,19.262575,45.413193,35.343987,50.675751,48.373241,12.461045,16.760902,53.542542,42.239578,36.644363,31.635836,16.034477,35.448669,44.747070,18.312500,17.943321,-5.358891,4.921850,28.214340,48.410099,42.956703,-4.129333,-0.925512,31.705034,68.709206,67.993874,49.416100,-23.143700,-114.380554,0.000000,0.000000,204.000000,1.000000,15.000000,,,,0.000000,4.000000,4.000000,4.000000,4.000000,4.000000,4.000000,4.000000,4.000000,4.000000,4.000000,4.000000,4.000000,4.000000,4.000000,4.000000,4.000000,4.000000,4.000000,4.000000,4.000000,4.000000,4.000000,4.000000,4.000000,4.000000,4.000000,4.000000,4.000000,4.000000,4.000000,4.000000,4.000000,100.000000,,,,,,,,,,,,,,,,,,,,,,,,,,,,,,,,,,
1626191536.775215,19.000000,0.000000,36.877640,37.878311,-36.392597,12.583312,32.047779,29.160950,44.989693,43.201794,12.448585,14.694910,48.365925,32.975800,29.947718,25.968815,13.969212,28.240915,34.968475,15.220341,12.802300,-3.304302,5.429236,23.575357,35.553997,38.302979,-3.100588,2.149260,23.476406,61.468189,57.679722,45.268219,-28.243631,-122.975403,0.000000,0.000000,207.000000,1.000000,15.000000,,,,0.000000,4.000000,4.000000,4.000000,4.000000,4.000000,4.000000,4.000000,4.000000,4.000000,4.000000,4.000000,4.000000,4.000000,4.000000,4.000000,4.000000,4.000000,4.000000,4.000000,4.000000,4.000000,4.000000,4.000000,4.000000,4.000000,4.000000,4.000000,4.000000,4.000000,4.000000,4.000000,4.000000,100.000000,,,,,,,,,,,,,,,,,,,,,,,,,,,,,,,,,,
1626191536.783028,20.000000,0.000000,28.643839,29.131203,-46.090050,8.984575,23.818808,19.910250,38.797009,37.523205,8.337674,25.950985,44.731403,27.819746,24.282385,24.918230,17.029089,25.651136,26.736586,17.766659,6.641806,-3.300998,1.837653,18.428705,26.809212,30.580059,-13.855949,-5.025197,15.256006,54.234413,46.863583,34.976799,-34.875389,-130.537048,0.000000,0.000000,192.000000,1.000000,15.000000,,,,0.000000,4.000000,4.000000,4.000000,4.000000,4.000000,4.000000,4.000000,4.000000,4.000000,4.000000,4.000000,4.000000,4.000000,4.000000,4.000000,4.000000,4.000000,4.000000,4.000000,4.000000,4.000000,4.000000,4.000000,4.000000,4.000000,4.000000,4.000000,4.000000,4.000000,4.000000,4.000000,4.000000,100.000000,,,,,,,,,,,,,,,,,,,,,,,,,,,,,,,,,,
1626191536.790741,21.000000,0.000000,26.565964,23.978994,-55.777805,5.389436,20.208834,15.791878,37.733597,30.825684,1.157029,25.412725,41.612827,26.255003,25.282719,23.356390,17.524366,26.650101,26.197540,14.675046,8.172088,0.800765,1.323507,18.410276,28.831635,28.500250,-21.014400,-13.217094,13.703827,48.544792,41.693642,25.720284,-38.426666,-132.968048,0.000000,0.000000,208.000000,1.000000,15.000000,,,,0.000000,4.000000,4.000000,4.000000,4.000000,4.000000,4.000000,4.000000,4.000000,4.000000,4.000000,4.000000,4.000000,4.000000,4.000000,4.000000,4.000000,4.000000,4.000000,4.000000,4.000000,4.000000,4.000000,4.000000,4.000000,4.000000,4.000000,4.000000,4.000000,4.000000,4.000000,4.000000,4.000000,100.000000,,,,,,,,,,,,,,,,,,,,,,,,,,,,,,,,,,
1626191536.798454,22.000000,0.000000,22.953243,22.930401,-55.209721,-2.300568,15.577856,18.849932,38.720478,30.794857,-0.381051,10.530390,42.083523,25.204132,26.282051,22.308418,15.457612,29.697296,29.245190,13.123447,10.213146,3.361503,0.297568,17.367250,28.802803,27.959440,-23.554924,-10.642340,14.202431,46.447018,43.188869,29.793024,-38.388241,-135.908920,0.000000,0.000000,211.000000,1.000000,15.000000,,,,0.000000,4.000000,4.000000,4.000000,4.000000,4.000000,4.000000,4.000000,4.000000,4.000000,4.000000,4.000000,4.000000,4.000000,4.000000,4.000000,4.000000,4.000000,4.000000,4.000000,4.000000,4.000000,4.000000,4.000000,4.000000,4.000000,4.000000,4.000000,4.000000,4.000000,4.000000,4.000000,4.000000,100.000000,,,,,,,,,,,,,,,,,,,,,,,,,,,,,,,,,,
1626191536.806267,23.000000,0.000000,17.807215,22.907471,-55.666821,-2.810575,14.537663,13.708005,34.583298,31.276371,-2.942209,4.372167,43.578362,23.129698,23.181923,25.872263,17.491385,29.155291,28.703636,18.233400,11.739856,1.308910,-0.727344,14.276037,27.749384,26.394558,-23.019062,-8.582466,10.602075,48.962109,44.170296,32.837078,-37.325237,-142.433014,0.000000,0.000000,212.000000,1.000000,15.000000,,,,0.000000,4.000000,4.000000,4.000000,4.000000,4.000000,4.000000,4.000000,4.000000,4.000000,4.000000,4.000000,4.000000,4.000000,4.000000,4.000000,4.000000,4.000000,4.000000,4.000000,4.000000,4.000000,4.000000,4.000000,4.000000,4.000000,4.000000,4.000000,4.000000,4.000000,4.000000,4.000000,4.000000,100.000000,,,,,,,,,,,,,,,,,,,,,,,,,,,,,,,,,,
1626191536.814080,24.000000,0.000000,14.715561,21.859947,-60.734230,-1.270842,12.986202,6.009682,31.987175,24.585094,-3.963882,8.978564,42.510166,23.618876,27.769510,26.358698,21.572355,30.663059,28.162626,21.289015,18.388117,3.869140,3.371844,16.310993,28.233942,28.417395,-15.311428,-8.573884,11.103780,47.888531,37.466125,25.631933,-38.312527,-148.950577,0.000000,0.000000,186.000000,1.000000,15.000000,,,,0.000000,4.000000,4.000000,4.000000,4.000000,4.000000,4.000000,4.000000,4.000000,4.000000,4.000000,4.000000,4.000000,4.000000,4.000000,4.000000,4.000000,4.000000,4.000000,4.000000,4.000000,4.000000,4.000000,4.000000,4.000000,4.000000,4.000000,4.000000,4.000000,4.000000,4.000000,4.000000,4.000000,100.000000,,,,,,,,,,,,,,,,,,,,,,,,,,,,,,,,,,
1626191536.821793,25.000000,0.000000,15.725460,20.301165,-60.673496,-7.417264,9.899370,9.589826,34.004417,24.560509,3.724697,9.481894,40.930733,25.644487,32.352509,23.258493,17.452322,35.243164,32.232925,23.316956,22.468189,4.889886,6.442319,19.368528,25.644171,30.950516,-11.197655,-3.442233,17.240368,44.254490,33.842506,25.093994,-37.761906,-145.215469,0.000000,0.000000,201.000000,1.000000,15.000000,,,,0.000000,4.000000,4.000000,4.000000,4.000000,4.000000,4.000000,4.000000,4.000000,4.000000,4.000000,4.000000,4.000000,4.000000,4.000000,4.000000,4.000000,4.000000,4.000000,4.000000,4.000000,4.000000,4.000000,4.000000,4.000000,4.000000,4.000000,4.000000,4.000000,4.000000,4.000000,4.000000,4.000000,100.000000,,,,,,,,,,,,,,,,,,,,,,,,,,,,,,,,,,
1626191536.829606,26.000000,0.000000,20.832811,22.330093,-58.051281,-5.872923,11.938702,11.629467,36.019646,32.732872,4.233280,11.521642,41.914417,25.106535,28.221697,23.235235,12.311792,33.158691,35.786846,25.342869,18.859568,0.274227,2.337415,19.349159,28.692371,29.894951,-14.260303,-2.414175,18.760052,48.308697,39.956356,32.241207,-31.576452,-137.385651,0.000000,0.000000,197.000000,1.000000,15.000000,,,,0.000000,4.000000,4.000000,4.000000,4.000000,4.000000,4.000000,4.000000,4.000000,4.000000,4.000000,4.000000,4.000000,4.000000,4.000000,4.000000,4.000000,4.000000,4.000000,4.000000,4.000000,4.000000,4.000000,4.000000,4.000000,4.000000,4.000000,4.000000,4.000000,4.000000,4.000000,4.000000,4.000000,100.000000,,,,,,,,,,,,,,,,,,,,,,,,,,,,,,,,,,
1626191536.837319,27.000000,0.000000,22.348902,26.918533,-59.530155,1.817565,15.000608,10.080914,33.934395,33.212448,2.179816,16.120890,42.384811,24.056814,26.656551,19.625847,12.299480,26.977840,31.652597,22.243681,15.254554,-2.799893,-2.787999,16.768270,32.249832,27.815825,-16.295275,-3.948684,15.155137,52.358849,41.965630,31.696657,-31.544876,-136.735947,0.000000,0.000000,198.000000,1.000000,15.000000,,,,0.000000,4.000000,4.000000,4.000000,4.000000,4.000000,4.000000,4.000000,4.000000,4.000000,4.000000,4.000000,4.000000,4.000000,4.000000,4.000000,4.000000,4.000000,4.000000,4.000000,4.000000,4.000000,4.000000,4.000000,4.000000,4.000000,4.000000,4.000000,4.000000,4.000000,4.000000,4.000000,4.000000,100.000000,,,,,,,,,,,,,,,,,,,,,,,,,,,,,,,,,,
1626191536.845132,28.000000,0.000000,19.252707,24.842384,-61.519855,-2.282714,11.911762,13.144680,30.826614,29.080772,8.325329,10.981692,41.317810,22.495834,24.580664,14.483144,10.237950,26.438555,26.497868,16.073744,8.066992,-6.895555,-7.908288,11.628427,24.532969,23.177238,-19.352825,-3.944736,11.041521,46.158798,36.800587,25.517269,-37.661022,-141.209976,0.000000,0.000000,200.000000,1.000000,15.000000,,,,0.000000,4.000000,4.000000,4.000000,4.000000,4.000000,4.000000,4.000000,4.000000,4.000000,4.000000,4.000000,4.000000,4.000000,4.000000,4.000000,4.000000,4.000000,4.000000,4.000000,4.000000,4.000000,4.000000,4.000000,4.000000,4.000000,4.000000,4.000000,4.000000,4.000000,4.000000,4.000000,4.000000,100.000000,,,,,,,,,,,,,,,,,,,,,,,,,,,,,,,,,,
1626191536.852845,29.000000,0.000000,17.184223,19.182156,-64.019875,-5.354277,8.313697,11.082304,32.332710,28.539385,7.292388,3.798403,40.764187,19.911798,17.896084,18.054813,11.252328,23.338270,25.446754,15.033055,1.398925,-10.987121,-10.974226,7.518336,21.946898,18.543293,-21.382702,-10.088483,7.956633,39.964947,34.714558,20.880983,-40.697208,-144.142624,0.000000,0.000000,194.000000,1.000000,15.000000,,,,0.000000,4.000000,4.000000,4.000000,4.000000,4.000000,4.000000,4.000000,4.000000,4.000000,4.000000,4.000000,4.000000,4.000000,4.000000,4.000000,4.000000,4.000000,4.000000,4.000000,4.000000,4.000000,4.000000,4.000000,4.000000,4.000000,4.000000,4.000000,4.000000,4.000000,4.000000,4.000000,4.000000,100.000000,,,,,,,,,,,,,,,,,,,,,,,,,,,,,,,,,,
1626191536.860558,30.000000,0.000000,15.630116,18.138359,-69.078934,-4.836615,7.280767,2.874299,32.300377,26.973921,-1.424135,9.429989,37.137268,18.354965,16.341265,19.061375,16.364153,20.241085,25.933615,17.067253,5.495987,-5.340749,-6.864790,9.047741,26.535719,23.135519,-18.799782,-15.201471,7.436368,42.486519,33.655228,19.323179,-44.242664,-151.170792,0.000000,0.000000,207.000000,1.000000,15.000000,,,,0.000000,4.000000,4.000000,4.000000,4.000000,4.000000,4.000000,4.000000,4.000000,4.000000,4.000000,4.000000,4.000000,4.000000,4.000000,4.000000,4.000000,4.000000,4.000000,4.000000,4.000000,4.000000,4.000000,4.000000,4.000000,4.000000,4.000000,4.000000,4.000000,4.000000,4.000000,4.000000,4.000000,100.000000,,,,,,,,,,,,,,,,,,,,,,,,,,,,,,,,,,
1626191536.868371,31.000000,0.000000,13.565255,15.558682,-72.596008,-12.004086,5.224256,2.359117,26.632692,22.336178,-2.447326,13.519020,32.489361,15.775071,20.423384,12.894621,17.884710,26.368536,25.395374,16.025570,13.175107,-1.236947,-1.734849,13.649463,22.410723,28.747768,-19.805597,-12.112424,7.941240,45.005573,31.060034,19.816164,-44.710732,-155.630386,0.000000,0.000000,201.000000,1.000000,15.000000,,,,0.000000,4.000000,4.000000,4.000000,4.000000,4.000000,4.000000,4.000000,4.000000,4.000000,4.000000,4.000000,4.000000,4.000000,4.000000,4.000000,4.000000,4.000000,4.000000,4.000000,4.000000,4.000000,4.000000,4.000000,4.000000,4.000000,4.000000,4.000000,4.000000,4.000000,4.000000,4.000000,4.000000,100.000000,,,,,,,,,,,,,,,,,,,,,,,,,,,,,,,,,,
1626191536.876084,32.000000,0.000000,13.039382,11.444662,-72.011101,-16.090544,2.145185,2.356758,23.019907,20.264612,-1.420264,5.820886,33.481487,12.685450,20.402962,16.980188,17.866827,33.002167,25.369978,17.034161,15.723470,-3.797248,-2.245422,16.197351,20.339081,26.157482,-22.347330,-11.588004,6.396376,42.399029,28.467434,18.259424,-40.567558,-151.376297,3968.000000,0.000000,0.000000,1.000000,15.000000,,,,0.000000,4.000000,4.000000,4.000000,4.000000,4.000000,4.000000,4.000000,4.000000,4.000000,4.000000,4.000000,4.000000,4.000000,4.000000,4.000000,4.000000,4.000000,4.000000,4.000000,4.000000,4.000000,4.000000,4.000000,4.000000,4.000000,4.000000,4.000000,4.000000,4.000000,4.000000,4.000000,4.000000,100.000000,,,,,,,,,,,,,,,,,,,,,,,,,,,,,,,,,,
1626191536.883897,33.000000,0.000000,10.977112,8.871678,-74.500626,-12.488299,-2.467729,-4.305599,24.021502,21.268963,-0.394228,4.790450,37.546467,15.746611,19.870251,23.623207,20.922806,31.944550,25.856916,22.652512,17.244669,0.817318,-0.193945,15.668846,23.392588,24.594400,-16.177290,-15.162570,2.803825,38.258167,24.340506,13.630395,-45.650066,-155.323380,3968.000000,0.000000,0.000000,1.000000,15.000000,,,,0.000000,4.000000,4.000000,4.000000,4.000000,4.000000,4.000000,4.000000,4.000000,4.000000,4.000000,4.000000,4.000000,4.000000,4.000000,4.000000,4.000000,4.000000,4.000000,4.000000,4.000000,4.000000,4.000000,4.000000,4.000000,4.000000,4.000000,4.000000,4.000000,4.000000,4.000000,4.000000,4.000000,100.000000,,,,,,,,,,,,,,,,,,,,,,,,,,,,,,,,,,
1626191536.891610,34.000000,0.000000,9.941520,6.301269,-78.012283,-14.012734,-3.489877,-3.276678,22.460558,23.296925,5.241551,11.445659,36.484306,17.267788,21.387302,20.013432,16.291113,27.301836,24.294136,20.580627,15.178194,4.402655,1.855479,13.091639,19.270733,25.082115,-16.673420,-13.610484,1.264099,38.219910,24.316164,12.592150,-53.289032,-169.000366,3968.000000,0.000000,0.000000,1.000000,15.000000,,,,0.000000,4.000000,4.000000,4.000000,4.000000,4.000000,4.000000,4.000000,4.000000,4.000000,4.000000,4.000000,4.000000,4.000000,4.000000,4.000000,4.000000,4.000000,4.000000,4.000000,4.000000,4.000000,4.000000,4.000000,4.000000,4.000000,4.000000,4.000000,4.000000,4.000000,4.000000,4.000000,4.000000,100.000000,,,,,,,,,,,,,,,,,,,,,,,,,,,,,,,,,,
1626191536.899423,35.000000,0.000000,11.468501,7.319583,-73.835808,-14.511029,3.173613,1.849676,21.925789,22.249012,6.260925,12.971136,32.349361,11.102827,16.755146,15.382648,3.979438,21.639151,20.683689,8.264662,7.478401,-3.286364,-2.244838,11.029317,17.714540,24.544725,-24.853670,-10.010719,5.873604,41.767841,28.902618,16.678019,-44.526512,-165.757507,3968.000000,0.000000,0.000000,1.000000,15.000000,,,,0.000000,4.000000,4.000000,4.000000,4.000000,4.000000,4.000000,4.000000,4.000000,4.000000,4.000000,4.000000,4.000000,4.000000,4.000000,4.000000,4.000000,4.000000,4.000000,4.000000,4.000000,4.000000,4.000000,4.000000,4.000000,4.000000,4.000000,4.000000,4.000000,4.000000,4.000000,4.000000,4.000000,100.000000,,,,,,,,,,,,,,,,,,,,,,,,,,,,,,,,,,
1626191536.907136,36.000000,0.000000,9.920110,13.459955,-66.589668,-8.348825,7.268901,0.310903,22.928478,21.202147,5.230048,15.007396,30.267780,9.042493,12.127623,15.367266,3.463151,18.031357,20.150698,4.670244,4.397076,-6.356923,-2.242593,12.555210,21.282978,25.032488,-16.119585,-6.926863,14.064653,43.262997,30.410639,19.735188,-33.211216,-150.222519,4096.000000,0.000000,0.000000,1.000000,15.000000,,,,0.000000,4.000000,4.000000,4.000000,4.000000,4.000000,4.000000,4.000000,4.000000,4.000000,4.000000,4.000000,4.000000,4.000000,4.000000,4.000000,4.000000,4.000000,4.000000,4.000000,4.000000,4.000000,4.000000,4.000000,4.000000,4.000000,4.000000,4.000000,4.000000,4.000000,4.000000,4.000000,4.000000,100.000000,,,,,,,,,,,,,,,,,,,,,,,,,,,,,,,,,,
1626191536.914949,37.000000,0.000000,9.397882,14.983418,-62.936920,-3.217400,7.773940,2.872130,24.442472,28.353252,11.372511,21.140081,32.286743,13.644220,14.677033,13.302668,11.144303,20.062557,26.790546,12.862496,6.954217,-4.301336,3.907342,16.641117,21.774004,28.081301,-4.832697,-4.358397,15.075204,42.195118,32.429459,20.740067,-33.690315,-144.949234,3968.000000,0.000000,0.000000,1.000000,15.000000,,,,0.000000,4.000000,4.000000,4.000000,4.000000,4.000000,4.000000,4.000000,4.000000,4.000000,4.000000,4.000000,4.000000,4.000000,4.000000,4.000000,4.000000,4.000000,4.000000,4.000000,4.000000,4.000000,4.000000,4.000000,4.000000,4.000000,4.000000,4.000000,4.000000,4.000000,4.000000,4.000000,4.000000,100.000000,,,,,,,,,,,,,,,,,,,,,,,,,,,,,,,,,,
1626191536.922662,38.000000,0.000000,15.023869,15.993051,-60.312447,-3.726490,11.352320,7.992335,29.028799,33.447975,13.410369,17.020479,35.328300,16.192114,17.223894,13.289365,9.083928,21.579416,31.886833,15.923480,5.410340,-7.370881,-0.707335,16.624475,23.801460,27.028605,-13.024788,-3.841731,13.010898,42.152924,35.983185,21.743942,-32.119701,-144.291977,3968.000000,0.000000,0.000000,1.000000,15.000000,,,,0.000000,4.000000,4.000000,4.000000,4.000000,4.000000,4.000000,4.000000,4.000000,4.000000,4.000000,4.000000,4.000000,4.000000,4.000000,4.000000,4.000000,4.000000,4.000000,4.000000,4.000000,4.000000,4.000000,4.000000,4.000000,4.000000,4.000000,4.000000,4.000000,4.000000,4.000000,4.000000,4.000000,100.000000,,,,,,,,,,,,,,,,,,,,,,,,,,,,,,,,,,
1626191536.930475,39.000000,0.000000,15.008844,22.637058,-60.252132,-5.771995,13.390199,3.885881,30.536694,27.779144,9.298497,10.343459,33.756050,15.151307,17.206671,16.349922,3.951767,18.996300,26.219561,11.296787,2.843391,-9.925048,-9.928165,11.997082,24.289967,21.366192,-19.671762,-4.350197,12.997887,39.549232,34.922585,23.259121,-31.575274,-140.049210,4096.000000,0.000000,0.000000,1.000000,15.000000,,,,0.000000,4.000000,4.000000,4.000000,4.000000,4.000000,4.000000,4.000000,4.000000,4.000000,4.000000,4.000000,4.000000,4.000000,4.000000,4.000000,4.000000,4.000000,4.000000,4.000000,4.000000,4.000000,4.000000,4.000000,4.000000,4.000000,4.000000,4.000000,4.000000,4.000000,4.000000,4.000000,4.000000,100.000000,,,,,,,,,,,,,,,,,,,,,,,,,,,,,,,,,,
1626191536.938188,40.000000,0.000000,8.846144,24.151344,-61.728806,-6.790838,10.815269,1.832765,24.358465,25.702133,7.239968,9.820807,29.111525,12.574617,15.140233,14.284341,5.997046,17.440380,20.557957,8.723952,1.303625,-11.964354,-10.942853,7.374316,16.581060,17.758671,-10.430552,-6.395078,9.911043,35.923531,33.863045,23.235863,-34.617542,-138.884552,3968.000000,0.000000,0.000000,1.000000,15.000000,,,,0.000000,4.000000,4.000000,4.000000,4.000000,4.000000,4.000000,4.000000,4.000000,4.000000,4.000000,4.000000,4.000000,4.000000,4.000000,4.000000,4.000000,4.000000,4.000000,4.000000,4.000000,4.000000,4.000000,4.000000,4.000000,4.000000,4.000000,4.000000,4.000000,4.000000,4.000000,4.000000,4.000000,100.000000,,,,,,,,,,,,,,,,,,,,,,,,,,,,,,,,,,
1626191536.946001,41.000000,0.000000,9.861913,18.491808,-62.179382,-7.296355,8.242916,3.880163,20.747953,26.188740,5.183497,4.687910,26.008568,8.463581,8.465093,7.610056,4.966434,14.861401,19.000477,6.153690,-4.333063,-15.026236,-11.444218,3.780787,13.490634,19.790144,-8.370892,-6.900990,11.438055,36.912220,34.341492,20.138781,-33.046001,-141.819519,3968.000000,0.000000,0.000000,1.000000,15.000000,,,,0.000000,4.000000,4.000000,4.000000,4.000000,4.000000,4.000000,4.000000,4.000000,4.000000,4.000000,4.000000,4.000000,4.000000,4.000000,4.000000,4.000000,4.000000,4.000000,4.000000,4.000000,4.000000,4.000000,4.000000,4.000000,4.000000,4.000000,4.000000,4.000000,4.000000,4.000000,4.000000,4.000000,100.000000,,,,,,,,,,,,,,,,,,,,,,,,,,,,,,,,,,
1626191536.953714,42.000000,0.000000,11.901281,20.010239,-63.654129,-10.362905,7.210058,1.314744,21.751820,23.088705,3.129083,-3.001393,24.957943,6.918194,4.358166,5.553216,-1.698533,9.723463,12.833783,0.512152,-8.939499,-13.474286,-11.432774,1.215468,17.063297,22.844200,-12.460982,-5.357166,19.111233,41.486080,31.745611,21.655565,-33.012959,-146.800766,3968.000000,0.000000,0.000000,1.000000,15.000000,,,,0.000000,4.000000,4.000000,4.000000,4.000000,4.000000,4.000000,4.000000,4.000000,4.000000,4.000000,4.000000,4.000000,4.000000,4.000000,4.000000,4.000000,4.000000,4.000000,4.000000,4.000000,4.000000,4.000000,4.000000,4.000000,4.000000,4.000000,4.000000,4.000000,4.000000,4.000000,4.000000,4.000000,100.000000,,,,,,,,,,,,,,,,,,,,,,,,,,,,,,,,,,
1626191536.961527,43.000000,0.000000,12.401689,23.064075,-63.590473,-8.815619,10.789001,3.874968,21.730068,26.651770,7.224415,5.198531,26.469910,9.985122,8.452270,10.670739,1.889320,11.250662,10.259411,-0.512976,-4.832098,-9.874658,-5.273648,3.263484,17.046234,23.333662,-9.886982,-4.327194,19.604429,46.055363,32.226173,27.781601,-35.541481,-148.190887,3968.000000,0.000000,0.000000,1.000000,15.000000,,,,0.000000,4.000000,4.000000,4.000000,4.000000,4.000000,4.000000,4.000000,4.000000,4.000000,4.000000,4.000000,4.000000,4.000000,4.000000,4.000000,4.000000,4.000000,4.000000,4.000000,4.000000,4.000000,4.000000,4.000000,4.000000,4.000000,4.000000,4.000000,4.000000,4.000000,4.000000,4.000000,4.000000,100.000000,,,,,,,,,,,,,,,,,,,,,,,,,,,,,,,,,,
1626191536.969240,44.000000,0.000000,18.536980,22.528704,-60.453037,-0.609880,15.388982,11.043401,25.806801,33.285118,12.340267,13.390256,30.541901,15.098214,14.591510,14.246222,9.059738,18.411718,20.495306,3.585999,4.394272,-6.790937,-1.682221,9.920220,22.152266,23.822638,-10.901711,-2.273636,17.535593,47.546230,36.804718,31.339973,-29.358250,-141.382706,3968.000000,0.000000,0.000000,1.000000,15.000000,,,,0.000000,4.000000,4.000000,4.000000,4.000000,4.000000,4.000000,4.000000,4.000000,4.000000,4.000000,4.000000,4.000000,4.000000,4.000000,4.000000,4.000000,4.000000,4.000000,4.000000,4.000000,4.000000,4.000000,4.000000,4.000000,4.000000,4.000000,4.000000,4.000000,4.000000,4.000000,4.000000,4.000000,100.000000,,,,,,,,,,,,,,,,,,,,,,,,,,,,,,,,,,
1626191536.976954,45.000000,0.000000,23.129211,22.506174,-61.929508,-1.121578,12.812055,7.958511,29.367147,30.690294,10.791004,7.741481,32.048283,18.669270,17.650764,12.182745,4.439909,21.467154,25.085579,7.168566,7.976032,-4.734916,-3.729769,12.471838,27.765497,22.261890,-21.136963,-2.783670,19.054981,43.912529,33.694065,29.259403,-27.791967,-139.192093,3968.000000,0.000000,0.000000,1.000000,15.000000,,,,0.000000,4.000000,4.000000,4.000000,4.000000,4.000000,4.000000,4.000000,4.000000,4.000000,4.000000,4.000000,4.000000,4.000000,4.000000,4.000000,4.000000,4.000000,4.000000,4.000000,4.000000,4.000000,4.000000,4.000000,4.000000,4.000000,4.000000,4.000000,4.000000,4.000000,4.000000,4.000000,4.000000,100.000000,,,,,,,,,,,,,,,,,,,,,,,,,,,,,,,,,,
1626191536.984767,46.000000,0.000000,14.909159,18.385206,-66.990654,-9.317379,8.188473,1.802860,24.727011,27.585758,6.169444,5.684509,28.430080,15.576755,17.633114,9.609024,0.849315,20.933378,17.888186,7.673706,6.431133,-9.340950,-5.775270,7.336289,20.565424,17.628860,-22.140442,-7.391655,10.326695,38.233234,27.000372,24.619375,-38.522636,-148.786743,3968.000000,0.000000,0.000000,1.000000,15.000000,,,,0.000000,4.000000,4.000000,4.000000,4.000000,4.000000,4.000000,4.000000,4.000000,4.000000,4.000000,4.000000,4.000000,4.000000,4.000000,4.000000,4.000000,4.000000,4.000000,4.000000,4.000000,4.000000,4.000000,4.000000,4.000000,4.000000,4.000000,4.000000,4.000000,4.000000,4.000000,4.000000,4.000000,100.000000,,,,,,,,,,,,,,,,,,,,,,,,,,,,,,,,,,
1626191536.992580,47.000000,0.000000,7.721942,13.243745,-65.899048,-8.283446,8.180285,1.288750,21.116129,26.533556,4.626351,9.264978,28.913958,11.975023,16.078558,11.648646,6.483850,22.449369,18.894913,9.202955,5.400086,-10.356224,-7.818726,6.304338,17.983320,16.586617,-15.970609,-7.384264,3.144061,35.633461,24.924141,21.008600,-37.459499,-151.711807,3968.000000,0.000000,0.000000,1.000000,15.000000,,,,0.000000,4.000000,4.000000,4.000000,4.000000,4.000000,4.000000,4.000000,4.000000,4.000000,4.000000,4.000000,4.000000,4.000000,4.000000,4.000000,4.000000,4.000000,4.000000,4.000000,4.000000,4.000000,4.000000,4.000000,4.000000,4.000000,4.000000,4.000000,4.000000,4.000000,4.000000,4.000000,4.000000,100.000000,,,,,,,,,,,,,,,,,,,,,,,,,,,,,,,,,,
1626191537.000293,48.000000,0.000000,13.349605,17.328962,-62.759304,-3.664394,9.709027,1.799768,24.168859,24.970100,8.207879,9.255713,34.520428,16.061510,18.111710,15.735459,9.551213,23.451534,24.511402,10.218368,6.419302,-6.759714,-10.372446,9.884188,24.113029,18.106953,-18.516176,-4.303033,8.263994,36.110134,27.460754,22.524515,-29.737425,-142.850861,3968.000000,0.000000,0.000000,1.000000,15.000000,,,,0.000000,4.000000,4.000000,4.000000,4.000000,4.000000,4.000000,4.000000,4.000000,4.000000,4.000000,4.000000,4.000000,4.000000,4.000000,4.000000,4.000000,4.000000,4.000000,4.000000,4.000000,4.000000,4.000000,4.000000,4.000000,4.000000,4.000000,4.000000,4.000000,4.000000,4.000000,4.000000,4.000000,100.000000,,,,,,,,,,,,,,,,,,,,,,,,,,,,,,,,,,
1626191537.008006,49.000000,0.000000,17.434717,20.897787,-62.184235,-3.660729,11.748549,6.408738,25.681614,30.580515,12.810440,10.783381,35.510521,19.631603,20.655136,17.256647,10.566278,22.915775,21.413046,8.671226,3.339036,-13.925262,-12.923612,8.337380,21.527378,16.551922,-21.059198,-6.347961,7.231114,36.586334,30.507139,25.063530,-34.318455,-138.097244,3968.000000,0.000000,0.000000,1.000000,15.000000,,,,0.000000,4.000000,4.000000,4.000000,4.000000,4.000000,4.000000,4.000000,4.000000,4.000000,4.000000,4.000000,4.000000,4.000000,4.000000,4.000000,4.000000,4.000000,4.000000,4.000000,4.000000,4.000000,4.000000,4.000000,4.000000,4.000000,4.000000,4.000000,4.000000,4.000000,4.000000,4.000000,4.000000,100.000000,,,,,,,,,,,,,,,,,,,,,,,,,,,,,,,,,,
1626191537.015819,50.000000,0.000000,14.855743,17.290735,-59.560513,-1.607838,14.298339,12.037714,26.680548,34.648396,10.748399,11.797213,32.401165,17.562740,19.097559,17.239389,13.117249,22.380552,19.854710,8.662555,-2.299688,-18.522106,-13.935304,4.230581,18.944311,12.436909,-16.427370,-5.829306,6.199268,36.549747,29.452017,22.989235,-35.821060,-141.032990,4096.000000,0.000000,0.000000,1.000000,15.000000,,,,0.000000,4.000000,4.000000,4.000000,4.000000,4.000000,4.000000,4.000000,4.000000,4.000000,4.000000,4.000000,4.000000,4.000000,4.000000,4.000000,4.000000,4.000000,4.000000,4.000000,4.000000,4.000000,4.000000,4.000000,4.000000,4.000000,4.000000,4.000000,4.000000,4.000000,4.000000,4.000000,4.000000,100.000000,,,,,,,,,,,,,,,,,,,,,,,,,,,,,,,,,,
1626191537.023632,51.000000,0.000000,15.865503,19.834984,-56.939415,-0.069307,13.771733,10.488753,28.190790,31.027594,8.176112,8.711569,32.881073,15.495947,17.541538,16.709843,9.005671,23.895094,24.957932,10.190815,-1.785080,-8.769738,-9.822906,4.738658,24.048445,13.449087,-16.410942,-1.212707,13.365376,36.000889,27.885643,23.478554,-30.149855,-148.064270,3968.000000,0.000000,0.000000,1.000000,15.000000,,,,0.000000,4.000000,4.000000,4.000000,4.000000,4.000000,4.000000,4.000000,4.000000,4.000000,4.000000,4.000000,4.000000,4.000000,4.000000,4.000000,4.000000,4.000000,4.000000,4.000000,4.000000,4.000000,4.000000,4.000000,4.000000,4.000000,4.000000,4.000000,4.000000,4.000000,4.000000,4.000000,4.000000,100.000000,,,,,,,,,,,,,,,,,,,,,,,,,,,,,,,,,,
1626191537.031345,52.000000,0.000000,20.460407,22.888994,-57.394783,-0.069238,14.782577,10.990572,26.625677,34.070412,10.729475,12.801319,32.848190,17.017374,18.548611,14.131595,4.385896,27.457354,25.445282,10.692932,3.852089,-4.662507,-3.665391,9.344688,24.024395,21.632561,-17.931456,-0.186879,11.815088,37.501812,31.443911,26.528921,-30.632013,-151.502350,4096.000000,0.000000,0.000000,1.000000,15.000000,,,,0.000000,4.000000,4.000000,4.000000,4.000000,4.000000,4.000000,4.000000,4.000000,4.000000,4.000000,4.000000,4.000000,4.000000,4.000000,4.000000,4.000000,4.000000,4.000000,4.000000,4.000000,4.000000,4.000000,4.000000,4.000000,4.000000,4.000000,4.000000,4.000000,4.000000,4.000000,4.000000,4.000000,100.000000,,,,,,,,,,,,,,,,,,,,,,,,,,,,,,,,,,
1626191537.039058,53.000000,0.000000,17.878408,19.792259,-59.386620,0.955447,15.280102,12.004197,25.574436,35.573265,10.718745,13.813133,29.741497,14.951125,17.505447,11.043616,6.943048,27.942204,21.321375,8.120701,4.872853,-8.243998,-2.637111,12.921498,23.488064,27.246313,-10.741216,-0.699000,9.241735,42.587387,31.924774,28.551622,-31.625996,-144.178543,3968.000000,0.000000,0.000000,1.000000,15.000000,,,,0.000000,4.000000,4.000000,4.000000,4.000000,4.000000,4.000000,4.000000,4.000000,4.000000,4.000000,4.000000,4.000000,4.000000,4.000000,4.000000,4.000000,4.000000,4.000000,4.000000,4.000000,4.000000,4.000000,4.000000,4.000000,4.000000,4.000000,4.000000,4.000000,4.000000,4.000000,4.000000,4.000000,100.000000,,,,,,,,,,,,,,,,,,,,,,,,,,,,,,,,,,
1626191537.046871,54.000000,0.000000,13.762068,19.260159,-64.450310,-2.119355,7.580206,6.869116,27.598091,27.340769,8.658795,2.528551,28.687140,11.350020,16.975634,11.032573,5.399182,22.791183,19.250822,7.600272,5.892595,-7.211139,-2.634474,11.371654,28.075344,25.169836,-6.632013,-3.259839,15.892492,46.130951,27.282080,31.084610,-29.545139,-141.985138,4096.000000,0.000000,0.000000,1.000000,15.000000,,,,0.000000,4.000000,4.000000,4.000000,4.000000,4.000000,4.000000,4.000000,4.000000,4.000000,4.000000,4.000000,4.000000,4.000000,4.000000,4.000000,4.000000,4.000000,4.000000,4.000000,4.000000,4.000000,4.000000,4.000000,4.000000,4.000000,4.000000,4.000000,4.000000,4.000000,4.000000,4.000000,4.000000,100.000000,,,,,,,,,,,,,,,,,,,,,,,,,,,,,,,,,,
1626191537.054584,55.000000,0.000000,17.846767,21.290131,-67.972015,-4.678774,7.060318,9.423785,29.619724,29.362658,10.187060,5.599868,30.195375,16.461748,21.057119,12.046156,2.319937,22.768393,23.842340,11.691133,15.620549,-3.617774,3.003546,14.434128,30.608809,25.656975,-9.186919,-8.379656,14.851985,45.572514,30.840952,31.565832,-32.077133,-150.552383,3968.000000,0.000000,0.000000,1.000000,15.000000,,,,0.000000,4.000000,4.000000,4.000000,4.000000,4.000000,4.000000,4.000000,4.000000,4.000000,4.000000,4.000000,4.000000,4.000000,4.000000,4.000000,4.000000,4.000000,4.000000,4.000000,4.000000,4.000000,4.000000,4.000000,4.000000,4.000000,4.000000,4.000000,4.000000,4.000000,4.000000,4.000000,4.000000,100.000000,,,,,,,,,,,,,,,,,,,,,,,,,,,,,,,,,,
1626191537.062397,56.000000,0.000000,27.050459,25.367302,-64.317886,-0.063326,20.373259,17.098976,36.250103,38.554832,14.787642,19.426577,36.825180,27.716055,26.159140,15.107956,10.002233,29.917933,33.552345,17.827135,22.777235,2.533536,13.246696,28.252001,38.262814,33.828239,-7.640810,-4.272815,12.787902,50.650017,41.056267,33.071190,-28.971209,-146.303360,4096.000000,0.000000,0.000000,1.000000,15.000000,,,,0.000000,4.000000,4.000000,4.000000,4.000000,4.000000,4.000000,4.000000,4.000000,4.000000,4.000000,4.000000,4.000000,4.000000,4.000000,4.000000,4.000000,4.000000,4.000000,4.000000,4.000000,4.000000,4.000000,4.000000,4.000000,4.000000,4.000000,4.000000,4.000000,4.000000,4.000000,4.000000,4.000000,100.000000,,,,,,,,,,,,,,,,,,,,,,,,,,,,,,,,,,
1626191537.070110,57.000000,0.000000,32.146484,29.952703,-65.278183,0.449045,22.914423,15.544954,42.873856,36.467049,15.797470,17.357920,44.472973,34.348339,31.256058,21.752848,17.164537,35.011093,40.178791,19.858538,20.705229,3.555618,15.794988,33.346825,46.933781,36.355949,-4.559323,2.903765,24.558191,59.308598,46.138287,38.161198,-21.769930,-134.373978,4096.000000,0.000000,0.000000,1.000000,15.000000,,,,0.000000,4.000000,4.000000,4.000000,4.000000,4.000000,4.000000,4.000000,4.000000,4.000000,4.000000,4.000000,4.000000,4.000000,4.000000,4.000000,4.000000,4.000000,4.000000,4.000000,4.000000,4.000000,4.000000,4.000000,4.000000,4.000000,4.000000,4.000000,4.000000,4.000000,4.000000,4.000000,4.000000,100.000000,,,,,,,,,,,,,,,,,,,,,,,,,,,,,,,,,,
1626191537.077923,58.000000,0.000000,30.577415,25.311981,-71.872902,-5.186789,10.596124,13.992487,40.269444,30.282888,12.195518,13.242100,42.891575,35.338608,34.298649,23.268019,12.536604,37.025311,42.187843,19.838680,16.073753,-8.231014,8.094577,25.116556,42.788387,32.221134,-9.677840,-2.222215,27.095171,55.663136,41.481377,37.610725,-26.871237,-142.436539,4096.000000,0.000000,0.000000,1.000000,15.000000,,,,0.000000,4.000000,4.000000,4.000000,4.000000,4.000000,4.000000,4.000000,4.000000,4.000000,4.000000,4.000000,4.000000,4.000000,4.000000,4.000000,4.000000,4.000000,4.000000,4.000000,4.000000,4.000000,4.000000,4.000000,4.000000,4.000000,4.000000,4.000000,4.000000,4.000000,4.000000,4.000000,4.000000,100.000000,,,,,,,,,,,,,,,,,,,,,,,,,,,,,,,,,,
1626191537.085636,59.000000,0.000000,25.936069,16.577438,-72.313339,-8.255448,6.487066,15.515417,37.667633,29.740299,9.109477,19.888857,38.237915,35.303268,35.288963,20.683212,10.474836,40.574440,43.682579,22.892687,12.983833,-9.247398,5.012637,23.554518,40.184059,29.627373,-17.352777,-5.293839,17.334230,49.459782,34.267590,29.888500,-31.455135,-157.663330,3968.000000,0.000000,0.000000,1.000000,15.000000,,,,0.000000,4.000000,4.000000,4.000000,4.000000,4.000000,4.000000,4.000000,4.000000,4.000000,4.000000,4.000000,4.000000,4.000000,4.000000,4.000000,4.000000,4.000000,4.000000,4.000000,4.000000,4.000000,4.000000,4.000000,4.000000,4.000000,4.000000,4.000000,4.000000,4.000000,4.000000,4.000000,4.000000,100.000000,0.972656,100.000000,4.000000,4.000000,4.000000,4.000000,4.000000,4.000000,4.000000,4.000000,4.000000,4.000000,4.000000,4.000000,4.000000,4.000000,4.000000,4.000000,4.000000,4.000000,4.000000,4.000000,4.000000,4.000000,4.000000,4.000000,4.000000,4.000000,4.000000,4.000000,4.000000,4.000000,4.000000,4.000000
1626191537.093449,60.000000,0.000000,23.348595,19.122400,-69.679489,-6.710269,11.091349,12.426056,39.679199,30.735174,11.661906,18.844353,40.761215,34.755657,36.790600,21.174837,16.099747,41.046173,44.151203,26.455948,14.507772,2.544926,9.106086,27.117117,43.217724,29.085438,-16.823118,1.883762,18.341511,54.533398,33.721012,26.784767,-24.763680,-159.042587,4096.000000,0.000000,0.000000,1.000000,15.000000,,,,0.000000,4.000000,4.000000,4.000000,4.000000,4.000000,4.000000,4.000000,4.000000,4.000000,4.000000,4.000000,4.000000,4.000000,4.000000,4.000000,4.000000,4.000000,4.000000,4.000000,4.000000,4.000000,4.000000,4.000000,4.000000,4.000000,4.000000,4.000000,4.000000,4.000000,4.000000,4.000000,4.000000,100.000000,,,,,,,,,,,,,,,,,,,,,,,,,,,,,,,,,,
1626191537.101162,61.000000,0.000000,28.448322,23.201738,-73.195961,-4.142021,9.031027,12.413630,36.565674,31.216745,12.162552,10.116278,38.671223,32.671669,34.704578,21.153662,16.083647,38.955894,43.594746,25.917185,22.690187,4.591611,8.584672,25.553076,40.612965,31.617891,-3.998602,5.468032,23.446247,58.065018,39.322678,29.831827,-21.665070,-151.711243,4096.000000,0.000000,0.000000,1.000000,15.000000,,,,0.000000,4.000000,4.000000,4.000000,4.000000,4.000000,4.000000,4.000000,4.000000,4.000000,4.000000,4.000000,4.000000,4.000000,4.000000,4.000000,4.000000,4.000000,4.000000,4.000000,4.000000,4.000000,4.000000,4.000000,4.000000,4.000000,4.000000,4.000000,4.000000,4.000000,4.000000,4.000000,4.000000,100.000000,,,,,,,,,,,,,,,,,,,,,,,,,,,,,,,,,,
1626191537.108975,62.000000,0.000000,33.030643,21.129307,-74.659691,-6.699417,6.972764,13.938139,33.967567,27.599377,8.564236,9.081546,31.972551,32.639000,31.596027,20.620199,14.018332,39.941555,46.112690,27.428190,26.765959,5.611635,9.600702,26.552137,40.060047,36.197044,5.739243,5.462564,23.935108,53.908493,39.795662,32.363533,-26.254175,-146.436447,4096.000000,0.000000,0.000000,1.000000,15.000000,,,,0.000000,4.000000,4.000000,4.000000,4.000000,4.000000,4.000000,4.000000,4.000000,4.000000,4.000000,4.000000,4.000000,4.000000,4.000000,4.000000,4.000000,4.000000,4.000000,4.000000,4.000000,4.000000,4.000000,4.000000,4.000000,4.000000,4.000000,4.000000,4.000000,4.000000,4.000000,4.000000,4.000000,100.000000,,,,,,,,,,,,,,,,,,,,,,,,,,,,,,,,,,
1626191537.116688,63.000000,0.000000,30.436075,19.058947,-74.585030,-12.840410,7.990407,8.801124,37.519753,23.473314,5.994133,12.146311,32.965195,31.581743,31.052122,25.722656,19.639698,39.901615,46.066578,27.400763,23.153040,10.729100,12.152640,26.525585,42.069218,30.525461,-2.463419,2.895563,23.398865,51.293045,35.145096,30.794249,-28.789459,-152.950012,4096.000000,0.000000,0.000000,1.000000,15.000000,,,,0.000000,4.000000,4.000000,4.000000,4.000000,4.000000,4.000000,4.000000,4.000000,4.000000,4.000000,4.000000,4.000000,4.000000,4.000000,4.000000,4.000000,4.000000,4.000000,4.000000,4.000000,4.000000,4.000000,4.000000,4.000000,4.000000,4.000000,4.000000,4.000000,4.000000,4.000000,4.000000,4.000000,100.000000,,,,,,,,,,,,,,,,,,,,,,,,,,,,,,,,,,
1626191537.124501,64.000000,0.000000,25.282562,16.478350,-79.633522,-14.364492,3.371648,7.767707,35.945313,24.474457,2.401985,13.671087,33.444538,25.402470,26.922609,25.184626,21.156982,32.689404,37.311279,17.127209,14.420656,0.472218,3.431257,18.814445,32.805607,20.761089,-14.756341,-7.353486,16.715466,46.630981,34.597645,24.615761,-33.371437,-162.018600,0.000000,0.000000,202.000000,1.000000,15.000000,,,,0.000000,4.000000,4.000000,4.000000,4.000000,4.000000,4.000000,4.000000,4.000000,4.000000,4.000000,4.000000,4.000000,4.000000,4.000000,4.000000,4.000000,4.000000,4.000000,4.000000,4.000000,4.000000,4.000000,4.000000,4.000000,4.000000,4.000000,4.000000,4.000000,4.000000,4.000000,4.000000,4.000000,100.000000,,,,,,,,,,,,,,,,,,,,,,,,,,,,,,,,,,
1626191537.132214,65.000000,0.000000,22.695742,15.949563,-81.090813,-12.813205,1.319045,11.858401,30.786289,24.449982,-0.161956,13.657416,30.849554,20.766298,21.260302,17.987135,10.889671,24.972099,31.126276,8.400850,6.209312,-11.311332,-6.818328,14.697169,26.112803,19.715714,-15.253892,-11.956902,11.575674,42.485889,34.050739,22.541914,-36.411915,-157.758118,0.000000,0.000000,198.000000,1.000000,15.000000,,,,0.000000,4.000000,4.000000,4.000000,4.000000,4.000000,4.000000,4.000000,4.000000,4.000000,4.000000,4.000000,4.000000,4.000000,4.000000,4.000000,4.000000,4.000000,4.000000,4.000000,4.000000,4.000000,4.000000,4.000000,4.000000,4.000000,4.000000,4.000000,4.000000,4.000000,4.000000,4.000000,4.000000,100.000000,,,,,,,,,,,,,,,,,,,,,,,,,,,,,,,,,,
1626191537.140027,66.000000,0.000000,23.185352,21.056690,-76.398949,-12.288084,6.440803,8.772696,33.829350,23.913225,2.912052,14.156067,34.404858,24.331686,22.263657,18.993763,9.854166,27.508667,31.095150,11.978602,7.227718,-4.127712,-1.176126,17.244011,32.746689,24.306767,-12.164792,-6.821868,17.199482,49.615711,34.016689,28.667065,-31.252424,-150.428055,0.000000,0.000000,188.000000,1.000000,15.000000,,,,0.000000,4.000000,4.000000,4.000000,4.000000,4.000000,4.000000,4.000000,4.000000,4.000000,4.000000,4.000000,4.000000,4.000000,4.000000,4.000000,4.000000,4.000000,4.000000,4.000000,4.000000,4.000000,4.000000,4.000000,4.000000,4.000000,4.000000,4.000000,4.000000,4.000000,4.000000,4.000000,4.000000,100.000000,,,,,,,,,,,,,,,,,,,,,,,,,,,,,,,,,,
1626191537.147740,67.000000,0.000000,24.699091,17.961788,-77.859474,-10.226565,6.434362,6.202385,39.430904,27.987774,4.958371,15.678834,37.956608,26.356585,25.827547,25.122461,19.578157,33.628849,31.576363,16.577393,14.392798,1.511800,7.021974,19.788305,35.275482,27.868614,-13.177242,-8.864277,17.182283,56.226097,35.007286,30.687630,-30.196556,-151.302246,0.000000,0.000000,206.000000,1.000000,15.000000,,,,0.000000,4.000000,4.000000,4.000000,4.000000,4.000000,4.000000,4.000000,4.000000,4.000000,4.000000,4.000000,4.000000,4.000000,4.000000,4.000000,4.000000,4.000000,4.000000,4.000000,4.000000,4.000000,4.000000,4.000000,4.000000,4.000000,4.000000,4.000000,4.000000,4.000000,4.000000,4.000000,4.000000,100.000000,,,,,,,,,,,,,,,,,,,,,,,,,,,,,,,,,,
1626191537.155553,68.000000,0.000000,22.625160,10.259210,-82.904694,-10.216339,3.354082,8.245414,37.854549,26.422863,0.854951,16.175463,33.820190,22.744074,23.240181,20.486568,14.435503,28.984451,30.520170,14.511585,13.866097,-4.637404,6.502644,22.842363,30.117130,27.840744,-17.262527,-12.441566,10.505101,51.559101,29.336895,23.996941,-36.826359,-156.786331,0.000000,0.000000,197.000000,1.000000,15.000000,,,,0.000000,4.000000,4.000000,4.000000,4.000000,4.000000,4.000000,4.000000,4.000000,4.000000,4.000000,4.000000,4.000000,4.000000,4.000000,4.000000,4.000000,4.000000,4.000000,4.000000,4.000000,4.000000,4.000000,4.000000,4.000000,4.000000,4.000000,4.000000,4.000000,4.000000,4.000000,4.000000,4.000000,100.000000,,,,,,,,,,,,,,,,,,,,,,,,,,,,,,,,,,
1626191537.163266,69.000000,0.000000,21.065613,14.859720,-80.260254,-14.816892,6.936882,10.798707,35.767464,23.322594,0.854096,14.110057,31.737139,24.258253,23.216942,15.343005,0.588760,23.832390,35.612728,14.497074,14.364539,-6.681998,4.959219,25.893366,32.136242,25.251366,-17.245264,-7.306048,14.593058,49.970619,27.258327,24.485252,-36.789536,-162.777237,0.000000,0.000000,210.000000,1.000000,15.000000,,,,0.000000,4.000000,4.000000,4.000000,4.000000,4.000000,4.000000,4.000000,4.000000,4.000000,4.000000,4.000000,4.000000,4.000000,4.000000,4.000000,4.000000,4.000000,4.000000,4.000000,4.000000,4.000000,4.000000,4.000000,4.000000,4.000000,4.000000,4.000000,4.000000,4.000000,4.000000,4.000000,4.000000,100.000000,,,,,,,,,,,,,,,,,,,,,,,,,,,,,,,,,,
1626191537.171079,70.000000,0.000000,29.241470,23.041784,-74.544609,-10.703613,12.053021,17.960217,42.904007,32.520809,8.025550,14.608254,40.414631,33.967842,32.927570,21.987663,5.711248,31.493174,45.823269,24.728731,23.059406,-1.552239,7.003490,29.965935,40.301029,27.787653,-8.006480,-3.200280,20.213850,56.068340,36.964916,34.194614,-28.043514,-158.515991,0.000000,0.000000,196.000000,1.000000,15.000000,,,,0.000000,4.000000,4.000000,4.000000,4.000000,4.000000,4.000000,4.000000,4.000000,4.000000,4.000000,4.000000,4.000000,4.000000,4.000000,4.000000,4.000000,4.000000,4.000000,4.000000,4.000000,4.000000,4.000000,4.000000,4.000000,4.000000,4.000000,4.000000,4.000000,4.000000,4.000000,4.000000,4.000000,100.000000,,,,,,,,,,,,,,,,,,,,,,,,,,,,,,,,,,
1626191537.178792,71.000000,0.000000,38.433765,25.067972,-72.420830,-4.032909,17.676353,26.651487,52.082642,41.709827,12.115986,20.229031,50.108063,42.130798,42.628490,32.724136,19.537844,39.658604,51.412830,34.437847,27.647116,6.133929,9.558024,34.546738,46.920731,32.882942,-3.387705,-6.270926,17.632097,58.573811,43.075642,37.234264,-24.941624,-146.062088,0.000000,0.000000,212.000000,1.000000,15.000000,,,,0.000000,4.000000,4.000000,4.000000,4.000000,4.000000,4.000000,4.000000,4.000000,4.000000,4.000000,4.000000,4.000000,4.000000,4.000000,4.000000,4.000000,4.000000,4.000000,4.000000,4.000000,4.000000,4.000000,4.000000,4.000000,4.000000,4.000000,4.000000,4.000000,4.000000,4.000000,4.000000,4.000000,100.000000,,,,,,,,,,,,,,,,,,,,,,,,,,,,,,,,,,
1626191537.186605,72.000000,0.000000,36.858410,25.042904,-72.348412,-5.565800,21.244831,27.137142,52.542866,41.155807,10.566947,26.356493,50.057957,42.088665,42.585861,33.203720,20.030615,41.668175,51.361416,30.817257,24.033314,7.664718,9.036160,30.926037,46.361500,29.776213,-13.118163,-10.875424,17.614464,55.441391,38.421799,32.586262,-31.576683,-148.989868,0.000000,0.000000,202.000000,1.000000,15.000000,,,,0.000000,4.000000,4.000000,4.000000,4.000000,4.000000,4.000000,4.000000,4.000000,4.000000,4.000000,4.000000,4.000000,4.000000,4.000000,4.000000,4.000000,4.000000,4.000000,4.000000,4.000000,4.000000,4.000000,4.000000,4.000000,4.000000,4.000000,4.000000,4.000000,4.000000,4.000000,4.000000,4.000000,100.000000,,,,,,,,,,,,,,,,,,,,,,,,,,,,,,,,,,
1626191537.194318,73.000000,0.000000,30.161552,20.919399,-76.374519,-7.609465,14.563586,20.450005,47.879551,35.991577,11.068687,25.817829,46.934052,37.948116,40.494045,31.121286,19.498276,42.651123,50.797749,22.589516,18.886204,-2.589100,3.391738,23.722803,41.704369,25.647976,-19.765045,-11.889165,16.059927,50.775181,34.797222,28.967522,-36.668182,-163.185501,0.000000,0.000000,201.000000,1.000000,15.000000,,,,0.000000,4.000000,4.000000,4.000000,4.000000,4.000000,4.000000,4.000000,4.000000,4.000000,4.000000,4.000000,4.000000,4.000000,4.000000,4.000000,4.000000,4.000000,4.000000,4.000000,4.000000,4.000000,4.000000,4.000000,4.000000,4.000000,4.000000,4.000000,4.000000,4.000000,4.000000,4.000000,4.000000,100.000000,,,,,,,,,,,,,,,,,,,,,,,,,,,,,,,,,,
1626191537.202131,74.000000,0.000000,28.594467,14.750789,-83.470459,-9.138779,7.889022,14.794171,47.831673,30.320200,13.619157,22.718166,46.887115,37.397861,43.527397,36.725548,26.138777,43.633087,52.283875,24.103849,16.818087,-4.123435,3.900654,27.285234,43.711895,29.720789,-14.622203,-10.852660,12.970021,50.212097,31.688580,27.401630,-34.069977,-162.510010,0.000000,0.000000,201.000000,1.000000,15.000000,,,,0.000000,4.000000,4.000000,4.000000,4.000000,4.000000,4.000000,4.000000,4.000000,4.000000,4.000000,4.000000,4.000000,4.000000,4.000000,4.000000,4.000000,4.000000,4.000000,4.000000,4.000000,4.000000,4.000000,4.000000,4.000000,4.000000,4.000000,4.000000,4.000000,4.000000,4.000000,4.000000,4.000000,100.000000,,,,,,,,,,,,,,,,,,,,,,,,,,,,,,,,,,
1626191537.209844,75.000000,0.000000,27.541258,15.760653,-84.411598,-12.715794,9.418056,12.217838,47.783840,28.752956,13.093230,25.256987,46.327923,39.409691,43.996178,39.762669,29.186485,44.101761,52.231590,30.227438,21.924347,8.688381,11.069061,33.917950,48.278954,33.277222,-11.533735,-12.378731,16.030897,54.260345,30.119967,27.886536,-31.986675,-154.662888,0.000000,0.000000,202.000000,1.000000,15.000000,,,,0.000000,4.000000,4.000000,4.000000,4.000000,4.000000,4.000000,4.000000,4.000000,4.000000,4.000000,4.000000,4.000000,4.000000,4.000000,4.000000,4.000000,4.000000,4.000000,4.000000,4.000000,4.000000,4.000000,4.000000,4.000000,4.000000,4.000000,4.000000,4.000000,4.000000,4.000000,4.000000,4.000000,100.000000,,,,,,,,,,,,,,,,,,,,,,,,,,,,,,,,,,
1626191537.217557,76.000000,0.000000,27.001408,18.306431,-79.204109,-11.678462,8.384023,13.230236,44.662212,30.773436,6.932445,26.768652,44.232365,36.296436,39.853718,32.550598,27.108068,45.082275,48.080894,29.684902,26.513191,10.216616,12.594915,32.859417,45.156830,34.268559,-13.059124,-14.927890,18.576405,53.181473,33.163692,28.883265,-36.053150,-153.483597,0.000000,0.000000,200.000000,1.000000,15.000000,,,,0.000000,4.000000,4.000000,4.000000,4.000000,4.000000,4.000000,4.000000,4.000000,4.000000,4.000000,4.000000,4.000000,4.000000,4.000000,4.000000,4.000000,4.000000,4.000000,4.000000,4.000000,4.000000,4.000000,4.000000,4.000000,4.000000,4.000000,4.000000,4.000000,4.000000,4.000000,4.000000,4.000000,100.000000,,,,,,,,,,,,,,,,,,,,,,,,,,,,,,,,,,
1626191537.225370,77.000000,0.000000,29.535946,15.214278,-79.637215,-9.105246,7.351024,12.192390,44.617550,29.718046,3.851666,20.594191,41.626595,32.673988,38.789249,26.882664,22.982498,41.963348,46.495892,26.581371,24.437447,2.521784,10.533090,33.338863,42.550133,36.283524,-12.533757,-12.863731,14.971675,52.615982,34.667454,29.366690,-38.066326,-156.916275,0.000000,0.000000,201.000000,1.000000,15.000000,,,,0.000000,4.000000,4.000000,4.000000,4.000000,4.000000,4.000000,4.000000,4.000000,4.000000,4.000000,4.000000,4.000000,4.000000,4.000000,4.000000,4.000000,4.000000,4.000000,4.000000,4.000000,4.000000,4.000000,4.000000,4.000000,4.000000,4.000000,4.000000,4.000000,4.000000,4.000000,4.000000,4.000000,100.000000,,,,,,,,,,,,,,,,,,,,,,,,,,,,,,,,,,
1626191537.233084,78.000000,0.000000,29.506409,16.223679,-85.192963,-13.706909,7.343672,10.643274,45.085239,31.225250,8.458584,21.085905,39.023426,32.641312,38.750462,29.929628,20.910284,39.359844,49.010933,26.554790,24.925318,10.716186,14.108710,35.354755,45.581429,38.296471,-8.935070,-9.264714,14.444395,60.760288,35.657402,28.312708,-37.003647,-166.493210,0.000000,0.000000,206.000000,1.000000,15.000000,,,,0.000000,4.000000,4.000000,4.000000,4.000000,4.000000,4.000000,4.000000,4.000000,4.000000,4.000000,4.000000,4.000000,4.000000,4.000000,4.000000,4.000000,4.000000,4.000000,4.000000,4.000000,4.000000,4.000000,4.000000,4.000000,4.000000,4.000000,4.000000,4.000000,4.000000,4.000000,4.000000,4.000000,100.000000,,,,,,,,,,,,,,,,,,,,,,,,,,,,,,,,,,
1626191537.240897,79.000000,0.000000,26.915365,19.793610,-84.083153,-15.742434,3.750175,13.706477,43.503231,33.243256,10.499356,29.261742,39.496712,33.120979,38.199402,34.510468,27.549374,43.931255,47.424999,27.040543,28.998854,17.877777,17.168447,34.807095,47.585079,40.307404,-6.364596,-9.255449,17.503798,63.261066,38.183281,26.235165,-36.966640,-168.375946,0.000000,0.000000,190.000000,1.000000,15.000000,,,,0.000000,4.000000,4.000000,4.000000,4.000000,4.000000,4.000000,4.000000,4.000000,4.000000,4.000000,4.000000,4.000000,4.000000,4.000000,4.000000,4.000000,4.000000,4.000000,4.000000,4.000000,4.000000,4.000000,4.000000,4.000000,4.000000,4.000000,4.000000,4.000000,4.000000,4.000000,4.000000,4.000000,100.000000,,,,,,,,,,,,,,,,,,,,,,,,,,,,,,,,,,
1626191537.248610,80.000000,0.000000,25.351526,19.261509,-79.900612,-11.115921,4.771040,14.717386,43.459728,29.111551,9.464241,23.597095,37.920292,30.526320,38.161201,30.377495,30.595671,44.911938,40.205269,25.988888,25.896008,10.687592,17.663588,33.747673,43.951340,39.754787,-7.895155,-7.709270,19.023216,58.074730,36.095867,28.258160,-34.880444,-152.326035,0.000000,0.000000,207.000000,1.000000,15.000000,,,,0.000000,4.000000,4.000000,4.000000,4.000000,4.000000,4.000000,4.000000,4.000000,4.000000,4.000000,4.000000,4.000000,4.000000,4.000000,4.000000,4.000000,4.000000,4.000000,4.000000,4.000000,4.000000,4.000000,4.000000,4.000000,4.000000,4.000000,4.000000,4.000000,4.000000,4.000000,4.000000,4.000000,100.000000,,,,,,,,,,,,,,,,,,,,,,,,,,,,,,,,,,
1626191537.256423,81.000000,0.000000,26.350790,21.291477,-78.283783,-7.518651,11.938577,13.165746,42.391651,30.107056,13.553239,12.302729,30.710064,26.909639,35.049194,21.637886,17.245075,37.694717,40.165062,22.376745,21.259344,9.139980,16.109001,29.103155,40.321236,33.055035,-6.350337,-2.578485,21.053423,59.553577,36.059772,33.865288,-29.722486,-146.538315,0.000000,0.000000,198.000000,1.000000,15.000000,,,,0.000000,4.000000,4.000000,4.000000,4.000000,4.000000,4.000000,4.000000,4.000000,4.000000,4.000000,4.000000,4.000000,4.000000,4.000000,4.000000,4.000000,4.000000,4.000000,4.000000,4.000000,4.000000,4.000000,4.000000,4.000000,4.000000,4.000000,4.000000,4.000000,4.000000,4.000000,4.000000,4.000000,100.000000,,,,,,,,,,,,,,,,,,,,,,,,,,,,,,,,,,
1626191537.264136,82.000000,0.000000,31.959824,26.393263,-75.643967,-6.486518,11.414330,18.275658,40.812340,36.224640,16.101223,14.851965,30.167046,28.931961,32.452606,17.517788,5.444754,32.021641,44.223358,17.231291,18.676546,10.155456,6.359046,24.463282,41.817837,33.021980,-1.220909,-1.551291,28.716986,64.617104,43.708328,36.392960,-27.643534,-153.051773,0.000000,0.000000,204.000000,1.000000,15.000000,,,,0.000000,4.000000,4.000000,4.000000,4.000000,4.000000,4.000000,4.000000,4.000000,4.000000,4.000000,4.000000,4.000000,4.000000,4.000000,4.000000,4.000000,4.000000,4.000000,4.000000,4.000000,4.000000,4.000000,4.000000,4.000000,4.000000,4.000000,4.000000,4.000000,4.000000,4.000000,4.000000,4.000000,100.000000,,,,,,,,,,,,,,,,,,,,,,,,,,,,,,,,,,
1626191537.271949,83.000000,0.000000,38.075558,29.953024,-71.469856,-5.967723,12.427531,26.454304,46.919216,38.237648,11.986661,21.497112,36.796879,36.075336,34.469387,20.574116,6.463924,30.965002,43.666828,16.701752,16.096331,0.411454,1.229609,27.000357,49.460632,37.087418,-1.731996,-3.598970,31.249807,65.064789,47.763081,39.430412,-25.054352,-144.189499,0.000000,0.000000,207.000000,1.000000,15.000000,,,,0.000000,4.000000,4.000000,4.000000,4.000000,4.000000,4.000000,4.000000,4.000000,4.000000,4.000000,4.000000,4.000000,4.000000,4.000000,4.000000,4.000000,4.000000,4.000000,4.000000,4.000000,4.000000,4.000000,4.000000,4.000000,4.000000,4.000000,4.000000,4.000000,4.000000,4.000000,4.000000,4.000000,100.000000,,,,,,,,,,,,,,,,,,,,,,,,,,,,,,,,,,
1626191537.279662,84.000000,0.000000,39.574402,35.558456,-68.836853,-3.400217,21.636642,28.989389,52.507683,41.785564,12.999290,15.840231,38.297005,40.137722,37.508762,24.652002,11.068230,30.421730,43.623161,18.221973,13.518696,-2.150496,4.814534,29.022587,51.972713,32.439560,-4.291802,-2.570756,24.046249,64.487419,48.739933,46.563290,-20.930836,-134.823761,0.000000,0.000000,192.000000,1.000000,15.000000,,,,0.000000,4.000000,4.000000,4.000000,4.000000,4.000000,4.000000,4.000000,4.000000,4.000000,4.000000,4.000000,4.000000,4.000000,4.000000,4.000000,4.000000,4.000000,4.000000,4.000000,4.000000,4.000000,4.000000,4.000000,4.000000,4.000000,4.000000,4.000000,4.000000,4.000000,4.000000,4.000000,4.000000,100.000000,,,,,,,,,,,,,,,,,,,,,,,,,,,,,,,,,,
1626191537.287475,85.000000,0.000000,36.460983,37.059818,-65.694168,-1.347586,24.176544,25.886553,46.819790,44.817623,16.060137,10.189006,36.209476,37.536045,35.422024,24.115044,15.155622,29.879000,42.554924,15.129905,10.943639,2.974732,1.735873,24.895103,44.748432,28.820969,-1.725972,-1.543570,21.460665,61.349087,51.765038,44.979805,-23.471443,-141.861252,0.000000,0.000000,209.000000,1.000000,15.000000,,,,0.000000,4.000000,4.000000,4.000000,4.000000,4.000000,4.000000,4.000000,4.000000,4.000000,4.000000,4.000000,4.000000,4.000000,4.000000,4.000000,4.000000,4.000000,4.000000,4.000000,4.000000,4.000000,4.000000,4.000000,4.000000,4.000000,4.000000,4.000000,4.000000,4.000000,4.000000,4.000000,4.000000,100.000000,,,,,,,,,,,,,,,,,,,,,,,,,,,,,,,,,,
1626191537.295188,86.000000,0.000000,30.276831,28.825836,-66.140778,-3.907777,17.492369,20.737589,40.112972,38.112804,10.921000,14.789586,31.562498,31.350819,28.214293,21.017082,15.140467,28.824507,34.827751,13.577852,9.908079,1.434834,-0.315094,21.284054,37.531376,31.865993,-5.822708,-6.152795,20.926897,53.603123,44.028660,35.713284,-30.107973,-144.793243,0.000000,0.000000,211.000000,1.000000,15.000000,,,,0.000000,4.000000,4.000000,4.000000,4.000000,4.000000,4.000000,4.000000,4.000000,4.000000,4.000000,4.000000,4.000000,4.000000,4.000000,4.000000,4.000000,4.000000,4.000000,4.000000,4.000000,4.000000,4.000000,4.000000,4.000000,4.000000,4.000000,4.000000,4.000000,4.000000,4.000000,4.000000,4.000000,100.000000,,,,,,,,,,,,,,,,,,,,,,,,,,,,,,,,,,
1626191537.303001,87.000000,0.000000,22.561937,23.161627,-72.734642,-6.977715,10.302567,14.569160,39.048244,32.951618,9.885463,18.360950,27.432474,22.097929,22.038387,19.971449,14.100711,28.795681,31.206770,16.125813,12.459710,0.408784,5.832913,19.725847,32.883076,31.321819,-13.501500,-10.245104,11.172124,45.864902,31.176937,31.066803,-32.639404,-143.623825,0.000000,0.000000,212.000000,1.000000,15.000000,,,,0.000000,4.000000,4.000000,4.000000,4.000000,4.000000,4.000000,4.000000,4.000000,4.000000,4.000000,4.000000,4.000000,4.000000,4.000000,4.000000,4.000000,4.000000,4.000000,4.000000,4.000000,4.000000,4.000000,4.000000,4.000000,4.000000,4.000000,4.000000,4.000000,4.000000,4.000000,4.000000,4.000000,100.000000,,,,,,,,,,,,,,,,,,,,,,,,,,,,,,,,,,
1626191537.310714,88.000000,0.000000,18.953222,24.675388,-71.637291,-3.384584,11.316880,14.042283,39.009193,40.090973,18.072500,15.268744,31.503504,18.489677,24.577887,20.976093,19.209688,31.328424,32.712486,15.085072,12.959558,1.432991,2.240927,18.169199,30.288652,28.216652,-9.389538,-10.234859,4.500951,41.208267,29.096531,27.449581,-32.606762,-152.701736,0.000000,0.000000,186.000000,1.000000,15.000000,,,,0.000000,4.000000,4.000000,4.000000,4.000000,4.000000,4.000000,4.000000,4.000000,4.000000,4.000000,4.000000,4.000000,4.000000,4.000000,4.000000,4.000000,4.000000,4.000000,4.000000,4.000000,4.000000,4.000000,4.000000,4.000000,4.000000,4.000000,4.000000,4.000000,4.000000,4.000000,4.000000,4.000000,100.000000,,,,,,,,,,,,,,,,,,,,,,,,,,,,,,,,,,
1626191537.318527,89.000000,0.000000,17.397345,22.089174,-66.442574,-0.819661,14.891718,16.077471,35.896339,42.100113,18.054428,11.155013,29.935078,17.446571,22.504078,16.344349,17.653555,25.661711,26.019773,6.873064,3.725060,-8.814596,-10.569006,12.003337,25.647594,22.040743,-8.867840,-13.298470,8.594912,36.556290,27.530510,20.762133,-38.721848,-160.233658,0.000000,0.000000,201.000000,1.000000,15.000000,,,,0.000000,4.000000,4.000000,4.000000,4.000000,4.000000,4.000000,4.000000,4.000000,4.000000,4.000000,4.000000,4.000000,4.000000,4.000000,4.000000,4.000000,4.000000,4.000000,4.000000,4.000000,4.000000,4.000000,4.000000,4.000000,4.000000,4.000000,4.000000,4.000000,4.000000,4.000000,4.000000,4.000000,100.000000,,,,,,,,,,,,,,,,,,,,,,,,,,,,,,,,,,
1626191537.326240,90.000000,0.000000,3.035333,12.845546,-77.134598,-9.528072,4.630672,6.327548,23.565058,27.201090,6.253297,4.483858,14.535912,2.572202,5.575420,3.520312,1.242055,8.217588,10.624524,-1.843040,-9.598665,-21.101166,-18.243053,-3.377897,11.277332,8.186395,-26.789742,-24.555941,5.512471,26.785889,15.207596,12.544447,-49.953896,-166.221115,0.000000,0.000000,198.000000,1.000000,15.000000,,,,0.000000,4.000000,4.000000,4.000000,4.000000,4.000000,4.000000,4.000000,4.000000,4.000000,4.000000,4.000000,4.000000,4.000000,4.000000,4.000000,4.000000,4.000000,4.000000,4.000000,4.000000,4.000000,4.000000,4.000000,4.000000,4.000000,4.000000,4.000000,4.000000,4.000000,4.000000,4.000000,4.000000,100.000000,,,,,,,,,,,,,,,,,,,,,,,,,,,,,,,,,,
1626191537.334053,91.000000,0.000000,-9.775394,5.660393,-92.938995,-19.252390,-9.206266,-6.998780,13.295340,16.927734,0.611659,1.917836,11.447530,-7.164217,0.446768,-2.118593,-0.808418,3.598601,5.490822,-2.353505,-9.589067,-16.469296,-19.761732,-6.448365,4.606055,4.592054,-32.398338,-28.629847,-0.128426,24.709871,11.093926,9.458056,-53.490097,-171.690277,0.000000,0.000000,198.000000,1.000000,15.000000,,,,0.000000,4.000000,4.000000,4.000000,4.000000,4.000000,4.000000,4.000000,4.000000,4.000000,4.000000,4.000000,4.000000,4.000000,4.000000,4.000000,4.000000,4.000000,4.000000,4.000000,4.000000,4.000000,4.000000,4.000000,4.000000,4.000000,4.000000,4.000000,4.000000,4.000000,4.000000,4.000000,4.000000,100.000000,,,,,,,,,,,,,,,,,,,,,,,,,,,,,,,,,,
1626191537.341766,92.000000,0.000000,5.603611,11.290117,-89.259903,-15.646984,-4.073983,-0.331781,21.478968,26.132345,6.246432,10.625149,24.756083,7.699871,16.327860,12.228141,17.123159,18.964233,19.317638,7.895002,4.765138,-1.595904,-10.520432,12.001160,23.556833,20.469000,-10.849015,-17.330448,10.117856,40.566700,24.915140,19.182446,-45.751991,-165.883209,0.000000,0.000000,200.000000,1.000000,15.000000,,,,0.000000,4.000000,4.000000,4.000000,4.000000,4.000000,4.000000,4.000000,4.000000,4.000000,4.000000,4.000000,4.000000,4.000000,4.000000,4.000000,4.000000,4.000000,4.000000,4.000000,4.000000,4.000000,4.000000,4.000000,4.000000,4.000000,4.000000,4.000000,4.000000,4.000000,4.000000,4.000000,4.000000,100.000000,,,,,,,,,,,,,,,,,,,,,,,,,,,,,,,,,,
1626191537.349579,93.000000,0.000000,23.016470,17.938828,-80.973724,-8.971337,3.614706,11.963936,30.679028,30.716982,9.314032,12.663754,26.780558,18.962940,22.459225,20.925144,15.569114,24.580654,32.106014,13.010184,11.932680,-0.057385,0.760857,17.624544,35.828663,29.670071,-0.592012,-8.091578,20.353891,52.309212,35.136379,28.384800,-38.533932,-159.569626,0.000000,0.000000,194.000000,1.000000,15.000000,,,,0.000000,4.000000,4.000000,4.000000,4.000000,4.000000,4.000000,4.000000,4.000000,4.000000,4.000000,4.000000,4.000000,4.000000,4.000000,4.000000,4.000000,4.000000,4.000000,4.000000,4.000000,4.000000,4.000000,4.000000,4.000000,4.000000,4.000000,4.000000,4.000000,4.000000,4.000000,4.000000,4.000000,100.000000,,,,,,,,,,,,,,,,,,,,,,,,,,,,,,,,,,
1626191537.357292,94.000000,0.000000,16.845760,16.383965,-82.429672,-13.060827,0.024938,7.853510,27.062195,22.489342,5.206256,3.941860,18.556852,14.333208,14.752150,8.608833,-1.864917,14.822227,26.950830,4.800251,1.674594,-3.643481,-1.801442,8.385381,25.034370,25.029631,-5.202189,-2.448102,21.358154,50.207672,35.101242,30.917953,-25.687704,-152.237747,0.000000,0.000000,206.000000,1.000000,15.000000,,,,0.000000,4.000000,4.000000,4.000000,4.000000,4.000000,4.000000,4.000000,4.000000,4.000000,4.000000,4.000000,4.000000,4.000000,4.000000,4.000000,4.000000,4.000000,4.000000,4.000000,4.000000,4.000000,4.000000,4.000000,4.000000,4.000000,4.000000,4.000000,4.000000,4.000000,4.000000,4.000000,4.000000,100.000000,,,,,,,,,,,,,,,,,,,,,,,,,,,,,,,,,,
1626191537.365105,95.000000,0.000000,18.365837,24.564505,-69.027245,-11.510843,6.684913,7.845656,30.621286,28.102238,7.762588,8.548687,22.636757,17.392721,19.860474,8.087917,6.846179,16.856636,23.850035,2.746220,1.160612,3.532470,-2.311949,17.086226,26.033953,26.029217,8.123013,15.997422,33.119873,54.768230,40.701527,43.694729,-0.558940,-128.519363,0.000000,0.000000,201.000000,1.000000,15.000000,,,,0.000000,4.000000,4.000000,4.000000,4.000000,4.000000,4.000000,4.000000,4.000000,4.000000,4.000000,4.000000,4.000000,4.000000,4.000000,4.000000,4.000000,4.000000,4.000000,4.000000,4.000000,4.000000,4.000000,4.000000,4.000000,4.000000,4.000000,4.000000,4.000000,4.000000,4.000000,4.000000,4.000000,100.000000,,,,,,,,,,,,,,,,,,,,,,,,,,,,,,,,,,
1626191537.372818,96.000000,0.000000,34.229012,38.884556,-48.465908,-3.302409,17.948997,20.645504,41.349125,42.418751,14.927134,17.249369,31.323351,28.646097,31.111383,25.498291,26.819332,28.110548,35.609261,14.014243,13.967143,7.115091,7.936517,29.876831,40.864841,33.175495,24.508736,28.276810,46.406754,63.935001,48.345440,55.946419,14.810849,-117.632378,4096.000000,0.000000,0.000000,1.000000,15.000000,,,,0.000000,4.000000,4.000000,4.000000,4.000000,4.000000,4.000000,4.000000,4.000000,4.000000,4.000000,4.000000,4.000000,4.000000,4.000000,4.000000,4.000000,4.000000,4.000000,4.000000,4.000000,4.000000,4.000000,4.000000,4.000000,4.000000,4.000000,4.000000,4.000000,4.000000,4.000000,4.000000,4.000000,100.000000,,,,,,,,,,,,,,,,,,,,,,,,,,,,,,,,,,
1626191537.380631,97.000000,0.000000,34.194782,34.747208,-51.491287,-10.471415,13.832586,19.600243,40.795467,35.716331,8.764514,7.498274,31.804337,32.203606,29.031040,25.472792,25.255590,29.619360,43.258266,18.610998,14.977792,0.960284,8.440888,23.699263,41.848591,33.142319,14.238073,19.026995,40.724960,62.846451,44.710941,49.742779,12.746808,-128.785522,4096.000000,0.000000,0.000000,1.000000,15.000000,,,,0.000000,4.000000,4.000000,4.000000,4.000000,4.000000,4.000000,4.000000,4.000000,4.000000,4.000000,4.000000,4.000000,4.000000,4.000000,4.000000,4.000000,4.000000,4.000000,4.000000,4.000000,4.000000,4.000000,4.000000,4.000000,4.000000,4.000000,4.000000,4.000000,4.000000,4.000000,4.000000,4.000000,100.000000,,,,,,,,,,,,,,,,,,,,,,,,,,,,,,,,,,
1626191537.388344,98.000000,0.000000,22.889818,24.978615,-61.685951,-24.293251,6.646446,9.846796,35.119289,22.360615,-0.978097,-1.730763,29.723301,28.585247,24.391241,15.201166,18.058027,29.589741,41.165779,18.080080,12.401276,3.008555,4.333986,23.163256,37.195972,29.010715,3.465374,17.471045,31.462698,58.685143,38.006229,45.082268,14.270984,-124.558266,3968.000000,0.000000,0.000000,1.000000,15.000000,,,,0.000000,4.000000,4.000000,4.000000,4.000000,4.000000,4.000000,4.000000,4.000000,4.000000,4.000000,4.000000,4.000000,4.000000,4.000000,4.000000,4.000000,4.000000,4.000000,4.000000,4.000000,4.000000,4.000000,4.000000,4.000000,4.000000,4.000000,4.000000,4.000000,4.000000,4.000000,4.000000,4.000000,100.000000,,,,,,,,,,,,,,,,,,,,,,,,,,,,,,,,,,
1626191537.396157,99.000000,0.000000,18.256159,23.929022,-61.624264,-23.756649,5.102877,8.300026,33.034939,23.362869,-1.489426,6.467891,28.156654,24.970509,26.928387,16.722887,16.503046,31.097075,41.636921,21.648153,19.561182,4.030161,7.403498,29.800093,36.646469,26.420166,10.634216,22.576651,30.406620,52.991074,33.357452,42.475647,12.719790,-119.310631,3968.000000,0.000000,0.000000,1.000000,15.000000,,,,0.000000,4.000000,4.000000,4.000000,4.000000,4.000000,4.000000,4.000000,4.000000,4.000000,4.000000,4.000000,4.000000,4.000000,4.000000,4.000000,4.000000,4.000000,4.000000,4.000000,4.000000,4.000000,4.000000,4.000000,4.000000,4.000000,4.000000,4.000000,4.000000,4.000000,4.000000,4.000000,4.000000,100.000000,,,,,,,,,,,,,,,,,,,,,,,,,,,,,,,,,,
1626191537.403870,100.000000,0.000000,18.750210,19.806631,-67.198021,-24.245201,-0.537611,8.804033,30.952673,26.413353,-4.561783,7.998346,28.128498,26.482462,28.438383,13.120011,6.752697,26.967516,44.156822,22.651121,16.467773,-5.195407,4.834556,23.110292,34.048286,23.319901,7.549736,11.795612,24.228521,46.790390,26.151789,32.699326,1.436301,-138.659012,3968.000000,0.000000,0.000000,1.000000,15.000000,,,,0.000000,4.000000,4.000000,4.000000,4.000000,4.000000,4.000000,4.000000,4.000000,4.000000,4.000000,4.000000,4.000000,4.000000,4.000000,4.000000,4.000000,4.000000,4.000000,4.000000,4.000000,4.000000,4.000000,4.000000,4.000000,4.000000,4.000000,4.000000,4.000000,4.000000,4.000000,4.000000,4.000000,100.000000,,,,,,,,,,,,,,,,,,,,,,,,,,,,,,,,,,
1626191537.411583,101.000000,0.000000,26.416075,21.323748,-71.229286,-27.294802,0.999850,14.430614,35.020184,28.948479,-6.606452,3.891886,33.223446,34.652901,33.020714,12.082275,4.696713,28.989779,47.186512,22.628469,13.377460,-0.067135,3.292799,22.062567,39.649620,26.882734,-4.753199,8.197662,23.179676,52.891293,30.736406,35.228165,1.434865,-142.106506,3968.000000,0.000000,0.000000,1.000000,15.000000,,,,0.000000,4.000000,4.000000,4.000000,4.000000,4.000000,4.000000,4.000000,4.000000,4.000000,4.000000,4.000000,4.000000,4.000000,4.000000,4.000000,4.000000,4.000000,4.000000,4.000000,4.000000,4.000000,4.000000,4.000000,4.000000,4.000000,4.000000,4.000000,4.000000,4.000000,4.000000,4.000000,4.000000,100.000000,,,,,,,,,,,,,,,,,,,,,,,,,,,,,,,,,,
1626191537.419396,102.000000,0.000000,32.025043,30.523962,-62.961136,-20.095200,10.732697,22.100800,41.132854,35.579529,3.646308,7.986456,37.288685,36.155170,37.598461,24.365578,20.573555,37.670021,49.188557,27.216610,22.585621,12.740624,13.023352,29.212812,45.757664,35.565083,0.886939,18.947927,30.328804,59.498402,40.439518,44.926781,9.118045,-127.107483,3968.000000,0.000000,0.000000,1.000000,15.000000,,,,0.000000,4.000000,4.000000,4.000000,4.000000,4.000000,4.000000,4.000000,4.000000,4.000000,4.000000,4.000000,4.000000,4.000000,4.000000,4.000000,4.000000,4.000000,4.000000,4.000000,4.000000,4.000000,4.000000,4.000000,4.000000,4.000000,4.000000,4.000000,4.000000,4.000000,4.000000,4.000000,4.000000,100.000000,,,,,,,,,,,,,,,,,,,,,,,,,,,,,,,,,,
1626191537.427109,103.000000,0.000000,21.746864,25.882669,-65.459709,-17.001259,8.160425,16.443314,36.993259,33.494720,7.228816,10.027700,34.689857,27.409786,30.900864,22.804289,22.602211,34.558502,40.942444,23.603239,18.976881,9.654037,11.985713,23.035908,36.490368,32.967979,11.132206,15.855132,23.126169,56.365055,32.714462,37.197239,0.399696,-137.738831,3968.000000,0.000000,0.000000,1.000000,15.000000,,,,0.000000,4.000000,4.000000,4.000000,4.000000,4.000000,4.000000,4.000000,4.000000,4.000000,4.000000,4.000000,4.000000,4.000000,4.000000,4.000000,4.000000,4.000000,4.000000,4.000000,4.000000,4.000000,4.000000,4.000000,4.000000,4.000000,4.000000,4.000000,4.000000,4.000000,4.000000,4.000000,4.000000,100.000000,,,,,,,,,,,,,,,,,,,,,,,,,,,,,,,,,,
1626191537.434922,104.000000,0.000000,15.577426,21.758326,-74.103485,-21.595026,2.516880,12.328409,31.833189,28.338148,4.660048,9.505364,32.605938,22.259300,24.209963,13.047639,11.821148,27.351637,32.192268,15.382713,8.199444,6.058230,4.289112,16.865179,30.818493,25.250395,8.559535,11.740816,14.906119,57.845615,28.070978,33.061581,-4.723780,-153.994934,4096.000000,0.000000,0.000000,1.000000,15.000000,,,,0.000000,4.000000,4.000000,4.000000,4.000000,4.000000,4.000000,4.000000,4.000000,4.000000,4.000000,4.000000,4.000000,4.000000,4.000000,4.000000,4.000000,4.000000,4.000000,4.000000,4.000000,4.000000,4.000000,4.000000,4.000000,4.000000,4.000000,4.000000,4.000000,4.000000,4.000000,4.000000,4.000000,100.000000,,,,,,,,,,,,,,,,,,,,,,,,,,,,,,,,,,
1626191537.442635,105.000000,0.000000,24.783386,34.544258,-67.369377,-17.474970,10.711287,21.025311,38.461357,34.969810,10.803081,16.155859,37.184101,26.847809,29.821136,22.256130,22.055481,32.447365,36.770847,18.441177,13.314321,9.126018,9.920208,24.532928,40.009212,33.422070,6.501745,20.438305,34.871212,64.447769,44.949059,43.786980,9.113251,-142.570175,4096.000000,0.000000,0.000000,1.000000,15.000000,,,,0.000000,4.000000,4.000000,4.000000,4.000000,4.000000,4.000000,4.000000,4.000000,4.000000,4.000000,4.000000,4.000000,4.000000,4.000000,4.000000,4.000000,4.000000,4.000000,4.000000,4.000000,4.000000,4.000000,4.000000,4.000000,4.000000,4.000000,4.000000,4.000000,4.000000,4.000000,4.000000,4.000000,100.000000,,,,,,,,,,,,,,,,,,,,,,,,,,,,,,,,,,
1626191537.450448,106.000000,0.000000,28.857065,40.145100,-62.178936,-14.383648,15.823651,23.565825,42.009048,38.008686,10.792277,18.188934,38.683838,31.431730,34.402084,28.893873,31.254965,37.537994,41.857155,22.008890,12.788699,6.043046,9.910288,29.119165,44.579971,42.610184,10.081397,18.880945,51.230186,64.383324,51.051804,49.890888,13.714907,-130.132217,4096.000000,0.000000,0.000000,1.000000,15.000000,,,,0.000000,4.000000,4.000000,4.000000,4.000000,4.000000,4.000000,4.000000,4.000000,4.000000,4.000000,4.000000,4.000000,4.000000,4.000000,4.000000,4.000000,4.000000,4.000000,4.000000,4.000000,4.000000,4.000000,4.000000,4.000000,4.000000,4.000000,4.000000,4.000000,4.000000,4.000000,4.000000,4.000000,100.000000,,,,,,,,,,,,,,,,,,,,,,,,,,,,,,,,,,
1626191537.458161,107.000000,0.000000,25.754362,34.981876,-70.825989,-23.078495,10.172443,18.931490,34.794731,28.236832,1.559947,12.023053,31.985155,28.326452,30.781528,16.569595,8.682171,29.815840,37.716835,14.814572,0.480526,-2.159920,0.678839,26.016199,40.436932,34.882957,10.583624,13.226679,36.322033,62.782017,39.729984,51.890228,3.455038,-134.612854,4096.000000,0.000000,0.000000,1.000000,15.000000,,,,0.000000,4.000000,4.000000,4.000000,4.000000,4.000000,4.000000,4.000000,4.000000,4.000000,4.000000,4.000000,4.000000,4.000000,4.000000,4.000000,4.000000,4.000000,4.000000,4.000000,4.000000,4.000000,4.000000,4.000000,4.000000,4.000000,4.000000,4.000000,4.000000,4.000000,4.000000,4.000000,4.000000,100.000000,,,,,,,,,,,,,,,,,,,,,,,,,,,,,,,,,,
1626191537.465974,108.000000,0.000000,26.240915,33.922279,-74.853622,-26.129263,6.063809,19.424866,31.173784,25.134748,0.533772,8.424876,26.830093,24.199665,29.213825,7.843795,-10.281897,21.076792,36.654503,10.701297,2.529276,-6.256222,0.678160,23.940952,39.884186,28.188076,8.011501,14.750376,26.039558,59.645386,37.641022,53.375259,0.377737,-133.453629,4096.000000,0.000000,0.000000,1.000000,15.000000,,,,0.000000,4.000000,4.000000,4.000000,4.000000,4.000000,4.000000,4.000000,4.000000,4.000000,4.000000,4.000000,4.000000,4.000000,4.000000,4.000000,4.000000,4.000000,4.000000,4.000000,4.000000,4.000000,4.000000,4.000000,4.000000,4.000000,4.000000,4.000000,4.000000,4.000000,4.000000,4.000000,4.000000,100.000000,,,,,,,,,,,,,,,,,,,,,,,,,,,,,,,,,,
1626191537.473687,109.000000,0.000000,27.751596,33.888359,-72.729538,-25.590826,4.520823,19.405441,34.728764,27.671152,-1.515993,5.342605,27.827879,26.737003,31.746149,8.860566,2.023770,23.617254,40.204002,15.301365,11.235977,-1.126889,4.775943,25.453936,41.893532,30.721426,3.905028,10.637163,33.698135,55.999588,38.627995,47.174191,1.914283,-124.610947,3968.000000,0.000000,0.000000,1.000000,15.000000,,,,0.000000,4.000000,4.000000,4.000000,4.000000,4.000000,4.000000,4.000000,4.000000,4.000000,4.000000,4.000000,4.000000,4.000000,4.000000,4.000000,4.000000,4.000000,4.000000,4.000000,4.000000,4.000000,4.000000,4.000000,4.000000,4.000000,4.000000,4.000000,4.000000,4.000000,4.000000,4.000000,4.000000,100.000000,,,,,,,,,,,,,,,,,,,,,,,,,,,,,,,,,,
1626191537.481500,110.000000,0.000000,29.260769,31.292931,-76.242958,-30.176004,1.442456,16.312189,33.669418,24.569635,-6.637554,1.751109,29.336973,31.833344,30.689787,10.388629,10.218670,30.253637,43.237644,22.458370,16.347818,10.145007,8.357321,32.088482,45.437794,34.276859,5.438046,8.064988,31.615206,59.529743,32.953983,46.102402,-3.210709,-127.047874,4096.000000,0.000000,0.000000,1.000000,15.000000,,,,0.000000,4.000000,4.000000,4.000000,4.000000,4.000000,4.000000,4.000000,4.000000,4.000000,4.000000,4.000000,4.000000,4.000000,4.000000,4.000000,4.000000,4.000000,4.000000,4.000000,4.000000,4.000000,4.000000,4.000000,4.000000,4.000000,4.000000,4.000000,4.000000,4.000000,4.000000,4.000000,4.000000,100.000000,,,,,,,,,,,,,,,,,,,,,,,,,,,,,,,,,,
1626191537.489214,111.000000,0.000000,28.719200,30.237022,-79.752869,-28.608906,0.416398,15.783569,32.611134,23.520449,-0.995532,4.310896,31.869175,35.387665,33.732944,11.915163,4.060759,34.834152,49.342098,29.095913,26.065317,12.696401,16.545887,38.716393,52.052357,39.877968,15.166454,14.716923,21.337437,61.519444,32.408722,49.130146,-6.281344,-136.142365,4096.000000,0.000000,0.000000,1.000000,15.000000,,,,0.000000,4.000000,4.000000,4.000000,4.000000,4.000000,4.000000,4.000000,4.000000,4.000000,4.000000,4.000000,4.000000,4.000000,4.000000,4.000000,4.000000,4.000000,4.000000,4.000000,4.000000,4.000000,4.000000,4.000000,4.000000,4.000000,4.000000,4.000000,4.000000,4.000000,4.000000,4.000000,4.000000,100.000000,,,,,,,,,,,,,,,,,,,,,,,,,,,,,,,,,,
1626191537.497026,112.000000,0.000000,28.690481,29.182171,-77.111580,-23.969528,2.977520,18.841631,36.164677,27.595390,3.616233,5.331201,36.448074,37.913815,40.359211,16.001709,11.229006,39.922394,53.903526,32.140663,29.625404,7.048320,13.455495,36.628445,53.024918,39.838089,14.126673,10.603745,25.926868,56.334846,33.400928,43.957939,-1.151986,-133.956985,4096.000000,0.000000,0.000000,1.000000,15.000000,,,,0.000000,4.000000,4.000000,4.000000,4.000000,4.000000,4.000000,4.000000,4.000000,4.000000,4.000000,4.000000,4.000000,4.000000,4.000000,4.000000,4.000000,4.000000,4.000000,4.000000,4.000000,4.000000,4.000000,4.000000,4.000000,4.000000,4.000000,4.000000,4.000000,4.000000,4.000000,4.000000,4.000000,100.000000,,,,,,,,,,,,,,,,,,,,,,,,,,,,,,,,,,
1626191537.504740,113.000000,0.000000,34.297176,31.714527,-74.985237,-23.945559,8.097619,22.921251,37.665436,30.129333,0.026463,4.813562,36.411629,38.388210,39.294235,21.621092,23.000853,41.419395,49.751160,28.010061,20.886549,7.041271,2.683578,30.956432,48.873432,30.576712,-0.232069,2.908525,39.220943,53.716972,30.293682,40.327827,1.923012,-130.236877,4096.000000,0.000000,0.000000,1.000000,15.000000,,,,0.000000,4.000000,4.000000,4.000000,4.000000,4.000000,4.000000,4.000000,4.000000,4.000000,4.000000,4.000000,4.000000,4.000000,4.000000,4.000000,4.000000,4.000000,4.000000,4.000000,4.000000,4.000000,4.000000,4.000000,4.000000,4.000000,4.000000,4.000000,4.000000,4.000000,4.000000,4.000000,4.000000,100.000000,,,,,,,,,,,,,,,,,,,,,,,,,,,,,,,,,,
1626191537.512453,114.000000,0.000000,34.262878,33.219734,-72.861023,-22.384689,11.163368,21.361406,38.140079,34.709972,3.100283,9.931825,32.789063,36.812897,34.644173,23.136395,17.342468,35.230286,43.041409,25.420511,15.742585,7.546538,4.217817,28.876245,46.775330,29.521519,-2.281068,6.491770,38.669415,55.200180,31.800310,44.898270,-3.714295,-139.840485,4096.000000,0.000000,0.000000,1.000000,15.000000,,,,0.000000,4.000000,4.000000,4.000000,4.000000,4.000000,4.000000,4.000000,4.000000,4.000000,4.000000,4.000000,4.000000,4.000000,4.000000,4.000000,4.000000,4.000000,4.000000,4.000000,4.000000,4.000000,4.000000,4.000000,4.000000,4.000000,4.000000,4.000000,4.000000,4.000000,4.000000,4.000000,4.000000,100.000000,,,,,,,,,,,,,,,,,,,,,,,,,,,,,,,,,,
1626191537.520266,115.000000,0.000000,23.982462,26.526516,-70.738930,-20.313074,8.590666,14.680046,38.101936,35.699879,8.220260,9.921893,31.731657,31.140699,33.072605,20.039412,12.714356,31.096592,40.436829,24.882784,13.677612,4.977453,7.287446,26.285830,41.605476,32.053535,4.381213,8.534510,26.335360,54.120365,28.182356,39.730293,-8.833658,-146.872955,4096.000000,0.000000,0.000000,1.000000,15.000000,,,,0.000000,4.000000,4.000000,4.000000,4.000000,4.000000,4.000000,4.000000,4.000000,4.000000,4.000000,4.000000,4.000000,4.000000,4.000000,4.000000,4.000000,4.000000,4.000000,4.000000,4.000000,4.000000,4.000000,4.000000,4.000000,4.000000,4.000000,4.000000,4.000000,4.000000,4.000000,4.000000,4.000000,100.000000,,,,,,,,,,,,,,,,,,,,,,,,,,,,,,,,,,
1626191537.528079,116.000000,0.000000,18.323093,18.303066,-75.791267,-24.391222,0.897460,9.029982,30.379221,24.393410,6.162808,3.251971,29.650694,23.937252,28.428764,17.970142,19.873949,30.040880,35.273315,17.173286,9.565473,5.484783,4.206312,19.087236,31.830025,23.824560,-2.283168,3.915206,19.136715,48.430859,14.834174,26.882872,-10.361748,-143.652237,4096.000000,0.000000,0.000000,1.000000,15.000000,,,,0.000000,4.000000,4.000000,4.000000,4.000000,4.000000,4.000000,4.000000,4.000000,4.000000,4.000000,4.000000,4.000000,4.000000,4.000000,4.000000,4.000000,4.000000,4.000000,4.000000,4.000000,4.000000,4.000000,4.000000,4.000000,4.000000,4.000000,4.000000,4.000000,4.000000,4.000000,4.000000,4.000000,100.000000,,,,,,,,,,,,,,,,,,,,,,,,,,,,,,,,,,
1626191537.535792,117.000000,0.000000,16.767847,16.747839,-83.400093,-27.440678,-4.226514,5.434797,23.688841,19.758247,1.545876,3.248719,25.010275,19.302546,22.764950,16.415249,19.341768,23.863148,28.065735,7.422266,7.506677,3.942375,2.152875,13.432765,27.699734,20.214582,-10.990116,1.862060,21.679117,41.722427,11.745494,27.368296,-12.912924,-145.557816,4096.000000,0.000000,0.000000,1.000000,15.000000,,,,0.000000,4.000000,4.000000,4.000000,4.000000,4.000000,4.000000,4.000000,4.000000,4.000000,4.000000,4.000000,4.000000,4.000000,4.000000,4.000000,4.000000,4.000000,4.000000,4.000000,4.000000,4.000000,4.000000,4.000000,4.000000,4.000000,4.000000,4.000000,4.000000,4.000000,4.000000,4.000000,4.000000,100.000000,,,,,,,,,,,,,,,,,,,,,,,,,,,,,,,,,,
1626191537.543605,118.000000,0.000000,11.628003,17.755707,-80.242844,-26.388620,-1.660749,2.867824,26.226690,26.398489,1.544330,8.368547,25.497572,18.258627,22.229877,13.324987,13.174734,21.277746,25.476131,9.464075,8.523786,2.401510,2.150722,13.931640,29.721264,25.829752,-4.831433,3.909429,23.706669,43.729935,17.881441,35.537849,-10.338472,-145.924561,4096.000000,0.000000,0.000000,1.000000,15.000000,,,,0.000000,4.000000,4.000000,4.000000,4.000000,4.000000,4.000000,4.000000,4.000000,4.000000,4.000000,4.000000,4.000000,4.000000,4.000000,4.000000,4.000000,4.000000,4.000000,4.000000,4.000000,4.000000,4.000000,4.000000,4.000000,4.000000,4.000000,4.000000,4.000000,4.000000,4.000000,4.000000,4.000000,100.000000,,,,,,,,,,,,,,,,,,,,,,,,,,,,,,,,,,
1626191537.551418,119.000000,0.000000,9.054836,18.762568,-76.064140,-26.362232,0.390142,3.377264,26.200464,23.810553,3.079709,8.872487,26.496691,11.580369,20.670725,9.725509,7.526175,19.719545,24.938347,14.577687,9.539877,4.448339,3.173187,13.917708,25.080774,22.730076,2.345706,5.954750,20.096809,44.710823,15.302021,33.453083,-5.717365,-140.143265,3968.000000,0.000000,0.000000,1.000000,15.000000,,,,0.000000,4.000000,4.000000,4.000000,4.000000,4.000000,4.000000,4.000000,4.000000,4.000000,4.000000,4.000000,4.000000,4.000000,4.000000,4.000000,4.000000,4.000000,4.000000,4.000000,4.000000,4.000000,4.000000,4.000000,4.000000,4.000000,4.000000,4.000000,4.000000,4.000000,4.000000,4.000000,4.000000,100.000000,,,,,,,,,,,,,,,,,,,,,,,,,,,,,,,,,,
1626191537.559131,120.000000,0.000000,3.410397,12.083804,-87.771156,-31.458946,-8.831786,-0.724575,18.489649,14.052896,0.002783,3.228230,19.810194,3.371865,13.990054,5.105013,-2.215198,12.015210,18.253408,9.952340,7.481106,0.345429,0.096167,10.829945,15.321847,15.535038,-8.415102,-0.198897,9.830558,32.370728,5.552873,20.099628,-19.543955,-148.200043,3968.000000,0.000000,0.000000,1.000000,15.000000,,,,0.000000,4.000000,4.000000,4.000000,4.000000,4.000000,4.000000,4.000000,4.000000,4.000000,4.000000,4.000000,4.000000,4.000000,4.000000,4.000000,4.000000,4.000000,4.000000,4.000000,4.000000,4.000000,4.000000,4.000000,4.000000,4.000000,4.000000,4.000000,4.000000,4.000000,4.000000,4.000000,4.000000,100.000000,,,,,,,,,,,,,,,,,,,,,,,,,,,,,,,,,,
1626191537.566944,121.000000,0.000000,-7.863782,-0.223664,-99.466461,-40.136719,-18.556801,-10.970004,12.323466,10.452688,-7.681835,-3.434999,15.179614,2.856186,11.414526,2.538370,-1.188367,13.027810,14.649001,6.356235,4.912087,-4.265686,-8.100852,12.868345,13.257294,14.494887,-23.775917,-10.444852,-1.962349,24.141432,-3.161911,7.271837,-34.893642,-161.371841,3968.000000,0.000000,0.000000,1.000000,15.000000,,,,0.000000,4.000000,4.000000,4.000000,4.000000,4.000000,4.000000,4.000000,4.000000,4.000000,4.000000,4.000000,4.000000,4.000000,4.000000,4.000000,4.000000,4.000000,4.000000,4.000000,4.000000,4.000000,4.000000,4.000000,4.000000,4.000000,4.000000,4.000000,4.000000,4.000000,4.000000,4.000000,4.000000,100.000000,,,,,,,,,,,,,,,,,,,,,,,,,,,,,,,,,,
1626191537.574657,122.000000,0.000000,-8.880534,-3.809594,-99.366997,-41.633507,-17.001322,-13.520573,11.286528,9.929928,-9.723384,-3.431564,19.775204,9.513330,16.013880,6.634293,10.595898,21.211706,21.294352,12.497570,6.444098,-0.162958,-8.605059,15.929323,17.854805,14.992701,-22.215218,-7.872869,-2.985003,28.728060,-8.794133,7.776873,-28.198748,-159.161240,4096.000000,0.000000,0.000000,1.000000,15.000000,,,,0.000000,4.000000,4.000000,4.000000,4.000000,4.000000,4.000000,4.000000,4.000000,4.000000,4.000000,4.000000,4.000000,4.000000,4.000000,4.000000,4.000000,4.000000,4.000000,4.000000,4.000000,4.000000,4.000000,4.000000,4.000000,4.000000,4.000000,4.000000,4.000000,4.000000,4.000000,4.000000,4.000000,100.000000,,,,,,,,,,,,,,,,,,,,,,,,,,,,,,,,,,
1626191537.582370,123.000000,0.000000,-2.211653,1.829600,-97.218399,-36.468796,-15.959704,-7.871667,15.373703,9.407691,-8.176738,-3.428132,24.878506,13.089970,20.608635,10.726121,10.072994,20.678186,25.883827,12.485073,8.486884,0.861820,-2.961069,10.790317,20.398489,13.953093,-12.971464,-2.741919,5.214906,29.211639,-7.248416,12.892173,-23.047472,-162.588226,4096.000000,0.000000,0.000000,1.000000,15.000000,,,,0.000000,4.000000,4.000000,4.000000,4.000000,4.000000,4.000000,4.000000,4.000000,4.000000,4.000000,4.000000,4.000000,4.000000,4.000000,4.000000,4.000000,4.000000,4.000000,4.000000,4.000000,4.000000,4.000000,4.000000,4.000000,4.000000,4.000000,4.000000,4.000000,4.000000,4.000000,4.000000,4.000000,100.000000,0.972656,100.000000,4.000000,4.000000,4.000000,4.000000,4.000000,4.000000,4.000000,4.000000,4.000000,4.000000,4.000000,4.000000,4.000000,4.000000,4.000000,4.000000,4.000000,4.000000,4.000000,4.000000,4.000000,4.000000,4.000000,4.000000,4.000000,4.000000,4.000000,4.000000,4.000000,4.000000,4.000000,4.000000
1626191537.590183,124.000000,0.000000,1.376712,4.901617,-93.535027,-37.456940,-15.431437,-5.302257,20.481405,11.447514,-8.168561,-6.498550,26.902857,13.076880,22.637259,10.715394,3.402921,19.120584,24.321020,5.812588,3.355321,-3.237504,-3.470416,8.730296,22.427322,12.402216,-16.032339,-8.374561,9.308152,28.157812,-1.605783,14.416203,-30.709042,-171.647171,3968.000000,0.000000,0.000000,1.000000,15.000000,,,,0.000000,4.000000,4.000000,4.000000,4.000000,4.000000,4.000000,4.000000,4.000000,4.000000,4.000000,4.000000,4.000000,4.000000,4.000000,4.000000,4.000000,4.000000,4.000000,4.000000,4.000000,4.000000,4.000000,4.000000,4.000000,4.000000,4.000000,4.000000,4.000000,4.000000,4.000000,4.000000,4.000000,100.000000,,,,,,,,,,,,,,,,,,,,,,,,,,,,,,,,,,
1626191537.597896,125.000000,0.000000,5.473797,7.458253,-84.219948,-35.882561,-7.219082,-2.223109,20.973232,16.046835,-6.111161,-2.905898,30.974417,17.162264,23.639236,12.241602,9.547211,23.712233,26.858238,8.880621,2.327350,-1.185035,-1.930022,15.381565,27.527971,14.439045,-20.627075,-8.366187,8.274229,34.789654,3.006592,19.012556,-28.116793,-155.593994,3968.000000,0.000000,0.000000,1.000000,15.000000,,,,0.000000,4.000000,4.000000,4.000000,4.000000,4.000000,4.000000,4.000000,4.000000,4.000000,4.000000,4.000000,4.000000,4.000000,4.000000,4.000000,4.000000,4.000000,4.000000,4.000000,4.000000,4.000000,4.000000,4.000000,4.000000,4.000000,4.000000,4.000000,4.000000,4.000000,4.000000,4.000000,4.000000,100.000000,,,,,,,,,,,,,,,,,,,,,,,,,,,,,,,,,,
1626191537.605709,126.000000,0.000000,12.128323,11.036949,-80.037270,-26.112833,-0.039556,5.463730,23.513798,21.153866,-2.006589,4.781624,34.017288,23.292795,24.640213,15.815515,13.636126,24.713137,33.491379,14.507125,8.472715,3.426919,3.194985,17.927723,33.135830,21.084606,-13.434141,-2.722436,10.827493,37.828712,8.126662,23.604313,-19.891754,-139.044556,4096.000000,0.000000,0.000000,1.000000,15.000000,,,,0.000000,4.000000,4.000000,4.000000,4.000000,4.000000,4.000000,4.000000,4.000000,4.000000,4.000000,4.000000,4.000000,4.000000,4.000000,4.000000,4.000000,4.000000,4.000000,4.000000,4.000000,4.000000,4.000000,4.000000,4.000000,4.000000,4.000000,4.000000,4.000000,4.000000,4.000000,4.000000,4.000000,100.000000,,,,,,,,,,,,,,,,,,,,,,,,,,,,,,,,,,
1626191537.613422,127.000000,0.000000,14.677733,11.538219,-81.494156,-25.574411,-0.551824,6.482881,29.125668,22.669634,-3.029197,3.239919,35.007885,24.294117,27.689419,16.312006,8.499413,23.151501,34.994812,12.955695,10.513474,1.374261,1.142559,14.835949,35.151924,19.526598,-10.346861,-7.330483,11.328973,37.790882,8.118535,20.506863,-24.482632,-151.200897,3968.000000,0.000000,0.000000,1.000000,15.000000,,,,0.000000,4.000000,4.000000,4.000000,4.000000,4.000000,4.000000,4.000000,4.000000,4.000000,4.000000,4.000000,4.000000,4.000000,4.000000,4.000000,4.000000,4.000000,4.000000,4.000000,4.000000,4.000000,4.000000,4.000000,4.000000,4.000000,4.000000,4.000000,4.000000,4.000000,4.000000,4.000000,4.000000,100.000000,,,,,,,,,,,,,,,,,,,,,,,,,,,,,,,,,,
1626191537.621235,0.000000,0.000000,16.199978,12.038989,-82.949585,-30.671915,-2.600503,5.451783,30.633465,20.597734,-4.050784,-1.886398,37.022110,23.757515,30.223267,16.295694,7.978605,25.177580,37.009048,15.504278,11.015267,-0.676344,-2.444737,14.821113,33.579849,14.383994,-15.971899,-11.421615,8.243798,40.314632,6.061186,19.974049,-30.605841,-158.734299,0.000000,0.000000,202.000000,1.000000,15.000000,,,,0.000000,4.000000,4.000000,4.000000,4.000000,4.000000,4.000000,4.000000,4.000000,4.000000,4.000000,4.000000,4.000000,4.000000,4.000000,4.000000,4.000000,4.000000,4.000000,4.000000,4.000000,4.000000,4.000000,4.000000,4.000000,4.000000,4.000000,4.000000,4.000000,4.000000,4.000000,4.000000,4.000000,100.000000,,,,,,,,,,,,,,,,,,,,,,,,,,,,,,,,,,
1626191537.628948,1.000000,0.000000,18.233009,16.125412,-83.378944,-26.542782,-3.110210,10.057100,31.115139,22.114059,-1.485194,0.164719,35.960472,27.832220,31.217659,18.840937,12.069088,26.689325,43.632038,22.661081,15.615021,0.861256,0.119246,18.392445,34.058575,19.492687,-16.980543,-8.848654,12.846323,42.323547,11.178202,26.101767,-24.939850,-144.743271,0.000000,0.000000,198.000000,1.000000,15.000000,,,,0.000000,4.000000,4.000000,4.000000,4.000000,4.000000,4.000000,4.000000,4.000000,4.000000,4.000000,4.000000,4.000000,4.000000,4.000000,4.000000,4.000000,4.000000,4.000000,4.000000,4.000000,4.000000,4.000000,4.000000,4.000000,4.000000,4.000000,4.000000,4.000000,4.000000,4.000000,4.000000,4.000000,100.000000,,,,,,,,,,,,,,,,,,,,,,,,,,,,,,,,,,
1626191537.636761,2.000000,0.000000,18.214777,17.646210,-75.610947,-22.930084,-1.057869,12.096274,32.108639,24.141176,-1.483709,2.726093,33.362972,29.853619,31.698750,17.797482,12.569326,26.662636,43.588406,21.613806,15.087098,0.348087,1.143742,19.398668,36.073750,22.547041,-15.426639,-9.352113,19.493477,42.281223,13.216254,28.637203,-19.791834,-136.913910,0.000000,0.000000,188.000000,1.000000,15.000000,,,,0.000000,4.000000,4.000000,4.000000,4.000000,4.000000,4.000000,4.000000,4.000000,4.000000,4.000000,4.000000,4.000000,4.000000,4.000000,4.000000,4.000000,4.000000,4.000000,4.000000,4.000000,4.000000,4.000000,4.000000,4.000000,4.000000,4.000000,4.000000,4.000000,4.000000,4.000000,4.000000,4.000000,100.000000,,,,,,,,,,,,,,,,,,,,,,,,,,,,,,,,,,
1626191537.644474,3.000000,0.000000,16.659637,18.140871,-67.850723,-24.956385,3.041651,8.498024,29.002686,21.555496,-5.068379,-0.350479,31.792686,26.237610,28.593204,12.656607,6.409065,21.512896,35.347893,13.907576,7.387396,-3.750723,-2.955863,14.768500,31.426905,16.376801,-17.972750,-9.342761,16.912445,41.214325,8.592269,28.608566,-20.796658,-137.801605,0.000000,0.000000,206.000000,1.000000,15.000000,,,,0.000000,4.000000,4.000000,4.000000,4.000000,4.000000,4.000000,4.000000,4.000000,4.000000,4.000000,4.000000,4.000000,4.000000,4.000000,4.000000,4.000000,4.000000,4.000000,4.000000,4.000000,4.000000,4.000000,4.000000,4.000000,4.000000,4.000000,4.000000,4.000000,4.000000,4.000000,4.000000,4.000000,100.000000,,,,,,,,,,,,,,,,,,,,,,,,,,,,,,,,,,
1626191537.652287,4.000000,0.000000,15.618363,21.196575,-72.905945,-24.419121,1.501686,7.977218,28.973682,21.021633,-5.575619,-3.936283,30.223970,25.186758,22.416920,12.131642,0.767271,15.343691,33.263317,10.819822,3.793855,-5.283895,-5.002138,12.192193,28.321632,18.921963,-17.954779,-6.771880,13.821687,41.173111,13.194446,30.629189,-20.263552,-133.565338,0.000000,0.000000,197.000000,1.000000,15.000000,,,,0.000000,4.000000,4.000000,4.000000,4.000000,4.000000,4.000000,4.000000,4.000000,4.000000,4.000000,4.000000,4.000000,4.000000,4.000000,4.000000,4.000000,4.000000,4.000000,4.000000,4.000000,4.000000,4.000000,4.000000,4.000000,4.000000,4.000000,4.000000,4.000000,4.000000,4.000000,4.000000,4.000000,100.000000,,,,,,,,,,,,,,,,,,,,,,,,,,,,,,,,,,
1626191537.660000,5.000000,0.000000,17.139668,24.249226,-77.956116,-23.882395,-0.549047,10.530780,30.481632,23.049843,-5.057735,-0.858500,30.706055,27.723110,23.419117,14.168741,7.938812,20.451424,38.353130,13.370541,10.962369,1.893697,2.687479,21.401539,36.490234,29.661503,-11.276823,-4.715877,17.906326,43.693478,19.841251,32.135483,-14.095596,-130.357925,0.000000,0.000000,210.000000,1.000000,15.000000,,,,0.000000,4.000000,4.000000,4.000000,4.000000,4.000000,4.000000,4.000000,4.000000,4.000000,4.000000,4.000000,4.000000,4.000000,4.000000,4.000000,4.000000,4.000000,4.000000,4.000000,4.000000,4.000000,4.000000,4.000000,4.000000,4.000000,4.000000,4.000000,4.000000,4.000000,4.000000,4.000000,4.000000,100.000000,,,,,,,,,,,,,,,,,,,,,,,,,,,,,,,,,,
1626191537.667813,6.000000,0.000000,15.073298,20.638823,-72.755089,-26.420050,1.500733,10.007941,26.352690,23.026793,-6.077293,1.191589,30.163040,26.158463,27.494160,14.154572,17.152411,28.115589,38.314777,18.992556,19.660637,11.113341,10.881715,28.552446,38.502975,32.705688,-4.605546,-0.100392,18.400728,43.649784,12.649102,32.615654,-12.544578,-137.912186,0.000000,0.000000,196.000000,1.000000,15.000000,,,,0.000000,4.000000,4.000000,4.000000,4.000000,4.000000,4.000000,4.000000,4.000000,4.000000,4.000000,4.000000,4.000000,4.000000,4.000000,4.000000,4.000000,4.000000,4.000000,4.000000,4.000000,4.000000,4.000000,4.000000,4.000000,4.000000,4.000000,4.000000,4.000000,4.000000,4.000000,4.000000,4.000000,100.000000,,,,,,,,,,,,,,,,,,,,,,,,,,,,,,,,,,
1626191537.675526,7.000000,0.000000,6.348994,12.421261,-72.682327,-24.856707,-0.549998,3.337933,22.227875,20.442228,-5.046600,-2.908064,23.472878,19.472305,22.343588,12.091187,11.499874,25.013626,32.641075,21.022793,17.591745,5.466843,5.747756,19.814663,28.218317,27.549904,-10.748633,-1.124907,14.283866,35.921520,4.951838,27.459961,-21.241264,-148.020432,0.000000,0.000000,212.000000,1.000000,15.000000,,,,0.000000,4.000000,4.000000,4.000000,4.000000,4.000000,4.000000,4.000000,4.000000,4.000000,4.000000,4.000000,4.000000,4.000000,4.000000,4.000000,4.000000,4.000000,4.000000,4.000000,4.000000,4.000000,4.000000,4.000000,4.000000,4.000000,4.000000,4.000000,4.000000,4.000000,4.000000,4.000000,4.000000,100.000000,,,,,,,,,,,,,,,,,,,,,,,,,,,,,,,,,,
1626191537.683339,8.000000,0.000000,0.194952,8.822685,-77.732727,-23.294928,-7.209448,-4.862328,20.668724,15.811016,-2.480015,-4.442079,19.350943,11.255909,14.124322,6.956019,2.266836,16.279383,23.899204,14.854077,8.352615,-5.809393,-3.991838,9.548694,22.554714,21.374662,-22.008654,-10.345321,13.244967,31.787136,5.971501,20.260195,-27.880022,-145.310867,0.000000,0.000000,202.000000,1.000000,15.000000,,,,0.000000,4.000000,4.000000,4.000000,4.000000,4.000000,4.000000,4.000000,4.000000,4.000000,4.000000,4.000000,4.000000,4.000000,4.000000,4.000000,4.000000,4.000000,4.000000,4.000000,4.000000,4.000000,4.000000,4.000000,4.000000,4.000000,4.000000,4.000000,4.000000,4.000000,4.000000,4.000000,4.000000,100.000000,,,,,,,,,,,,,,,,,,,,,,,,,,,,,,,,,,
1626191537.691052,9.000000,0.000000,2.756296,10.863093,-77.654991,-26.345478,-9.251470,-5.369773,17.574209,10.672128,-4.014458,-2.388406,18.306976,10.732346,12.060966,4.899832,0.727646,12.164641,19.264536,7.154608,5.270417,-5.803583,-6.037076,11.076069,23.556774,19.304056,-21.474337,-12.896514,13.231721,33.804581,6.477838,20.752241,-24.778297,-135.431717,0.000000,0.000000,200.000000,1.000000,15.000000,,,,0.000000,4.000000,4.000000,4.000000,4.000000,4.000000,4.000000,4.000000,4.000000,4.000000,4.000000,4.000000,4.000000,4.000000,4.000000,4.000000,4.000000,4.000000,4.000000,4.000000,4.000000,4.000000,4.000000,4.000000,4.000000,4.000000,4.000000,4.000000,4.000000,4.000000,4.000000,4.000000,4.000000,100.000000,,,,,,,,,,,,,,,,,,,,,,,,,,,,,,,,,,
1626191537.698865,10.000000,0.000000,7.364309,15.975307,-72.966568,-25.294518,-4.631449,1.295597,18.581249,13.735302,-8.108906,-4.435248,18.800978,17.893921,15.122752,8.993394,3.288457,16.763247,27.442196,10.733607,8.851300,-2.211626,-3.981809,16.188068,28.143988,23.383215,-14.280555,-9.809772,12.706182,36.844620,3.397514,24.317644,-23.216595,-136.320892,0.000000,0.000000,201.000000,1.000000,15.000000,,,,0.000000,4.000000,4.000000,4.000000,4.000000,4.000000,4.000000,4.000000,4.000000,4.000000,4.000000,4.000000,4.000000,4.000000,4.000000,4.000000,4.000000,4.000000,4.000000,4.000000,4.000000,4.000000,4.000000,4.000000,4.000000,4.000000,4.000000,4.000000,4.000000,4.000000,4.000000,4.000000,4.000000,100.000000,,,,,,,,,,,,,,,,,,,,,,,,,,,,,,,,,,
1626191537.706578,11.000000,0.000000,12.992329,23.643948,-64.696678,-18.609224,3.057798,7.954301,26.759592,21.406181,-6.051566,-1.356967,26.979099,26.585258,24.329168,14.619785,8.920553,24.943405,38.173214,19.432104,12.428602,-2.209414,1.145250,20.782650,36.312767,29.507524,-13.753967,-5.701500,19.865784,43.467777,9.029501,28.391787,-20.631840,-133.623047,0.000000,0.000000,202.000000,1.000000,15.000000,,,,0.000000,4.000000,4.000000,4.000000,4.000000,4.000000,4.000000,4.000000,4.000000,4.000000,4.000000,4.000000,4.000000,4.000000,4.000000,4.000000,4.000000,4.000000,4.000000,4.000000,4.000000,4.000000,4.000000,4.000000,4.000000,4.000000,4.000000,4.000000,4.000000,4.000000,4.000000,4.000000,4.000000,100.000000,,,,,,,,,,,,,,,,,,,,,,,,,,,,,,,,,,
1626191537.714391,12.000000,0.000000,19.639338,31.304918,-53.361214,-13.979845,12.276278,14.094039,32.880524,27.532469,0.102178,6.329005,32.075199,29.632519,31.477146,16.142088,9.936248,23.893847,36.085812,15.826519,9.342328,0.354334,5.754874,20.761868,38.837994,32.039555,-10.666367,0.964202,31.628994,49.572002,20.291241,39.121857,-10.365055,-116.070953,0.000000,0.000000,199.000000,1.000000,15.000000,,,,0.000000,4.000000,4.000000,4.000000,4.000000,4.000000,4.000000,4.000000,4.000000,4.000000,4.000000,4.000000,4.000000,4.000000,4.000000,4.000000,4.000000,4.000000,4.000000,4.000000,4.000000,4.000000,4.000000,4.000000,4.000000,4.000000,4.000000,4.000000,4.000000,4.000000,4.000000,4.000000,4.000000,100.000000,,,,,,,,,,,,,,,,,,,,,,,,,,,,,,,,,,
1626191537.722104,13.000000,0.000000,18.082775,31.273615,-50.234005,-13.453557,15.850156,16.129175,32.335335,30.578783,2.151307,5.810369,25.383121,26.016733,25.297977,13.052100,1.729388,16.697645,29.902033,5.564538,4.209908,-1.695252,2.162965,15.618029,33.676079,28.421362,-0.921854,2.500160,32.109673,46.960892,19.246334,43.693504,-7.280843,-108.782578,0.000000,0.000000,201.000000,1.000000,15.000000,,,,0.000000,4.000000,4.000000,4.000000,4.000000,4.000000,4.000000,4.000000,4.000000,4.000000,4.000000,4.000000,4.000000,4.000000,4.000000,4.000000,4.000000,4.000000,4.000000,4.000000,4.000000,4.000000,4.000000,4.000000,4.000000,4.000000,4.000000,4.000000,4.000000,4.000000,4.000000,4.000000,4.000000,100.000000,,,,,,,,,,,,,,,,,,,,,,,,,,,,,,,,,,
1626191537.729917,14.000000,0.000000,9.867768,23.557726,-53.769924,-16.513950,11.735845,9.965354,29.229155,30.035896,-0.412383,2.218404,22.796200,20.355331,19.124987,7.403664,2.239967,16.680948,30.384438,9.145127,8.304160,-4.767403,1.136187,14.577796,29.543940,24.806786,0.615991,-2.625417,22.343718,40.766239,8.468626,34.940578,-13.421255,-115.333794,0.000000,0.000000,206.000000,1.000000,15.000000,,,,0.000000,4.000000,4.000000,4.000000,4.000000,4.000000,4.000000,4.000000,4.000000,4.000000,4.000000,4.000000,4.000000,4.000000,4.000000,4.000000,4.000000,4.000000,4.000000,4.000000,4.000000,4.000000,4.000000,4.000000,4.000000,4.000000,4.000000,4.000000,4.000000,4.000000,4.000000,4.000000,4.000000,100.000000,,,,,,,,,,,,,,,,,,,,,,,,,,,,,,,,,,
1626191537.737630,15.000000,0.000000,9.857901,21.997244,-52.691540,-20.083590,9.674878,6.881543,26.638388,25.395090,-5.022740,4.777724,25.334944,18.798052,22.692015,10.470106,12.483881,21.275036,29.841745,19.382137,18.542009,2.921980,7.282743,20.710911,27.465164,25.806595,-4.507702,-0.573560,20.272142,39.700855,8.460157,31.831793,-13.407834,-114.706154,0.000000,0.000000,190.000000,1.000000,15.000000,,,,0.000000,4.000000,4.000000,4.000000,4.000000,4.000000,4.000000,4.000000,4.000000,4.000000,4.000000,4.000000,4.000000,4.000000,4.000000,4.000000,4.000000,4.000000,4.000000,4.000000,4.000000,4.000000,4.000000,4.000000,4.000000,4.000000,4.000000,4.000000,4.000000,4.000000,4.000000,4.000000,4.000000,100.000000,,,,,,,,,,,,,,,,,,,,,,,,,,,,,,,,,,
1626191537.745443,16.000000,0.000000,11.384966,25.049093,-53.663464,-20.575813,8.640588,8.923892,24.562517,23.832773,-9.116179,4.260639,22.748070,19.803869,22.157015,17.631943,14.520628,22.790684,25.201136,18.850447,20.060390,6.505212,8.300076,21.202507,27.437700,26.293097,-5.015502,1.476244,25.374949,39.148846,13.062467,32.824577,-12.369810,-110.492989,0.000000,0.000000,206.000000,1.000000,15.000000,,,,0.000000,4.000000,4.000000,4.000000,4.000000,4.000000,4.000000,4.000000,4.000000,4.000000,4.000000,4.000000,4.000000,4.000000,4.000000,4.000000,4.000000,4.000000,4.000000,4.000000,4.000000,4.000000,4.000000,4.000000,4.000000,4.000000,4.000000,4.000000,4.000000,4.000000,4.000000,4.000000,4.000000,100.000000,,,,,,,,,,,,,,,,,,,,,,,,,,,,,,,,,,
1626191537.753156,17.000000,0.000000,5.225889,18.364044,-61.294415,-19.530622,1.971947,3.279583,19.927187,21.759708,-9.107062,0.670224,20.676090,15.685605,17.524090,14.540465,9.383030,18.157124,21.589779,11.659288,12.355715,-2.722831,2.656391,15.033612,24.848724,20.119110,-7.572025,-6.722156,20.226496,33.474312,5.877096,24.082521,-19.017441,-117.554802,0.000000,0.000000,199.000000,1.000000,15.000000,,,,0.000000,4.000000,4.000000,4.000000,4.000000,4.000000,4.000000,4.000000,4.000000,4.000000,4.000000,4.000000,4.000000,4.000000,4.000000,4.000000,4.000000,4.000000,4.000000,4.000000,4.000000,4.000000,4.000000,4.000000,4.000000,4.000000,4.000000,4.000000,4.000000,4.000000,4.000000,4.000000,4.000000,100.000000,,,,,,,,,,,,,,,,,,,,,,,,,,,,,,,,,,
1626191537.760969,18.000000,0.000000,4.708355,13.734911,-61.233120,-18.486477,0.433052,1.739381,18.882645,18.664103,-5.511802,2.206477,21.680031,14.132996,18.018873,6.329002,0.664416,13.015890,22.592806,8.061476,6.195667,-8.867801,-2.469342,15.018579,20.725414,15.488222,-14.736761,-9.276972,12.521654,29.854685,3.309681,21.496901,-20.023039,-126.146477,0.000000,0.000000,204.000000,1.000000,15.000000,,,,0.000000,4.000000,4.000000,4.000000,4.000000,4.000000,4.000000,4.000000,4.000000,4.000000,4.000000,4.000000,4.000000,4.000000,4.000000,4.000000,4.000000,4.000000,4.000000,4.000000,4.000000,4.000000,4.000000,4.000000,4.000000,4.000000,4.000000,4.000000,4.000000,4.000000,4.000000,4.000000,4.000000,100.000000,,,,,,,,,,,,,,,,,,,,,,,,,,,,,,,,,,
1626191537.768683,19.000000,0.000000,20.585186,29.602715,-49.388813,-13.857222,14.264927,18.643795,31.671453,27.354670,-1.920136,9.376578,27.293736,25.901939,21.587008,10.933442,-5.996248,17.101336,30.767136,10.614952,8.751010,-7.322010,-1.954565,21.663559,30.950842,23.157349,-13.185101,0.466151,23.267593,40.070984,19.187910,36.844635,-10.781477,-121.409561,0.000000,0.000000,207.000000,1.000000,15.000000,,,,0.000000,4.000000,4.000000,4.000000,4.000000,4.000000,4.000000,4.000000,4.000000,4.000000,4.000000,4.000000,4.000000,4.000000,4.000000,4.000000,4.000000,4.000000,4.000000,4.000000,4.000000,4.000000,4.000000,4.000000,4.000000,4.000000,4.000000,4.000000,4.000000,4.000000,4.000000,4.000000,4.000000,100.000000,,,,,,,,,,,,,,,,,,,,,,,,,,,,,,,,,,
1626191537.776396,20.000000,0.000000,34.396908,41.356190,-48.827114,-13.331057,25.009123,31.945152,44.447475,39.622700,0.131015,15.514894,37.512596,38.171421,27.200806,22.193277,2.718979,26.305773,39.957909,18.288952,16.939182,-2.191611,6.756620,26.252666,47.313736,36.454193,-5.487300,3.539531,37.076633,54.375530,33.001030,47.566250,-5.135311,-113.603539,0.000000,0.000000,192.000000,1.000000,15.000000,,,,0.000000,4.000000,4.000000,4.000000,4.000000,4.000000,4.000000,4.000000,4.000000,4.000000,4.000000,4.000000,4.000000,4.000000,4.000000,4.000000,4.000000,4.000000,4.000000,4.000000,4.000000,4.000000,4.000000,4.000000,4.000000,4.000000,4.000000,4.000000,4.000000,4.000000,4.000000,4.000000,4.000000,100.000000,,,,,,,,,,,,,,,,,,,,,,,,,,,,,,,,,,
1626191537.784209,21.000000,0.000000,30.776358,30.556372,-66.196747,-23.051571,16.274883,23.716284,38.767643,33.435383,-2.942962,12.425533,37.987389,35.059406,32.296680,22.683392,15.523952,27.816391,38.381027,21.856817,19.483782,2.933657,12.385248,25.201797,44.704884,37.954662,-9.067967,-5.685546,29.867250,53.808846,29.894182,43.420223,-12.302484,-122.199165,0.000000,0.000000,209.000000,1.000000,15.000000,,,,0.000000,4.000000,4.000000,4.000000,4.000000,4.000000,4.000000,4.000000,4.000000,4.000000,4.000000,4.000000,4.000000,4.000000,4.000000,4.000000,4.000000,4.000000,4.000000,4.000000,4.000000,4.000000,4.000000,4.000000,4.000000,4.000000,4.000000,4.000000,4.000000,4.000000,4.000000,4.000000,4.000000,100.000000,,,,,,,,,,,,,,,,,,,,,,,,,,,,,,,,,,
1626191537.791922,22.000000,0.000000,24.597889,25.402737,-71.253632,-27.639290,6.012455,15.495644,28.482721,21.618872,-9.087711,1.654646,30.264788,28.876654,27.653616,14.976093,9.873044,24.202419,34.244183,16.711884,14.853528,-2.192353,6.737478,20.053518,33.901718,28.695168,-15.718899,-8.753707,19.591228,46.582729,23.204288,37.741417,-20.999413,-132.323120,0.000000,0.000000,211.000000,1.000000,15.000000,,,,0.000000,4.000000,4.000000,4.000000,4.000000,4.000000,4.000000,4.000000,4.000000,4.000000,4.000000,4.000000,4.000000,4.000000,4.000000,4.000000,4.000000,4.000000,4.000000,4.000000,4.000000,4.000000,4.000000,4.000000,4.000000,4.000000,4.000000,4.000000,4.000000,4.000000,4.000000,4.000000,4.000000,100.000000,,,,,,,,,,,,,,,,,,,,,,,,,,,,,,,,,,
1626191537.799735,23.000000,0.000000,27.647137,33.061951,-62.985455,-20.439342,9.080288,19.578609,33.065006,25.183407,-9.590932,2.677607,33.308369,31.921623,23.527500,12.911887,1.153940,21.104372,35.234554,12.596710,11.252521,-6.800930,0.583048,20.033464,36.429356,24.568010,-11.604718,-5.158800,20.596252,46.023838,22.668776,37.191368,-19.953796,-126.043098,0.000000,0.000000,212.000000,1.000000,15.000000,,,,0.000000,4.000000,4.000000,4.000000,4.000000,4.000000,4.000000,4.000000,4.000000,4.000000,4.000000,4.000000,4.000000,4.000000,4.000000,4.000000,4.000000,4.000000,4.000000,4.000000,4.000000,4.000000,4.000000,4.000000,4.000000,4.000000,4.000000,4.000000,4.000000,4.000000,4.000000,4.000000,4.000000,100.000000,,,,,,,,,,,,,,,,,,,,,,,,,,,,,,,,,,
1626191537.807448,24.000000,0.000000,27.619490,30.979658,-65.484009,-17.857365,14.194284,20.583647,39.179634,31.818224,-5.995187,12.408775,35.836597,31.889702,25.553204,11.874359,0.128170,17.497112,33.662395,11.047191,8.679730,-1.671052,-1.979073,20.013432,37.929848,25.055750,-12.617729,-7.715179,19.038733,47.002430,21.621492,37.666485,-15.835382,-120.793983,0.000000,0.000000,186.000000,1.000000,15.000000,,,,0.000000,4.000000,4.000000,4.000000,4.000000,4.000000,4.000000,4.000000,4.000000,4.000000,4.000000,4.000000,4.000000,4.000000,4.000000,4.000000,4.000000,4.000000,4.000000,4.000000,4.000000,4.000000,4.000000,4.000000,4.000000,4.000000,4.000000,4.000000,4.000000,4.000000,4.000000,4.000000,4.000000,100.000000,,,,,,,,,,,,,,,,,,,,,,,,,,,,,,,,,,
1626191537.815261,25.000000,0.000000,22.981100,26.850216,-65.418518,-18.864122,14.692398,15.952293,36.578915,30.249483,-5.476884,11.371751,29.653070,27.759350,25.527651,7.251716,-1.408881,16.967308,31.067196,11.036143,7.134127,-0.132458,-1.464786,18.968803,33.793457,26.055309,-17.215881,-8.219771,19.532001,47.467735,22.112179,38.653435,-12.745700,-121.697800,0.000000,0.000000,201.000000,1.000000,15.000000,,,,0.000000,4.000000,4.000000,4.000000,4.000000,4.000000,4.000000,4.000000,4.000000,4.000000,4.000000,4.000000,4.000000,4.000000,4.000000,4.000000,4.000000,4.000000,4.000000,4.000000,4.000000,4.000000,4.000000,4.000000,4.000000,4.000000,4.000000,4.000000,4.000000,4.000000,4.000000,4.000000,4.000000,100.000000,,,,,,,,,,,,,,,,,,,,,,,,,,,,,,,,,,
1626191537.822974,26.000000,0.000000,28.081196,36.557213,-50.496181,-16.796028,17.239244,21.059418,37.566952,30.219233,-7.520638,8.798841,32.697262,35.928513,29.088278,9.806003,5.252528,26.171879,40.257668,19.222031,16.348532,0.379982,8.782832,31.245218,41.444279,36.275410,-7.977127,-0.526937,30.783239,54.592575,30.286989,43.737858,-6.585262,-115.428413,0.000000,0.000000,197.000000,1.000000,15.000000,,,,0.000000,4.000000,4.000000,4.000000,4.000000,4.000000,4.000000,4.000000,4.000000,4.000000,4.000000,4.000000,4.000000,4.000000,4.000000,4.000000,4.000000,4.000000,4.000000,4.000000,4.000000,4.000000,4.000000,4.000000,4.000000,4.000000,4.000000,4.000000,4.000000,4.000000,4.000000,4.000000,4.000000,100.000000,,,,,,,,,,,,,,,,,,,,,,,,,,,,,,,,,,
1626191537.830787,27.000000,0.000000,34.713116,41.131424,-48.396454,-19.340769,17.734312,25.136820,42.652462,32.238243,-6.488502,11.351581,40.861488,44.089508,36.231495,19.017735,14.981122,32.293400,48.926640,26.375116,21.967567,6.014987,15.434050,41.972435,51.648991,45.972980,1.252389,1.010513,37.412457,60.685677,34.867470,50.354122,-1.967907,-110.189911,0.000000,0.000000,198.000000,1.000000,15.000000,,,,0.000000,4.000000,4.000000,4.000000,4.000000,4.000000,4.000000,4.000000,4.000000,4.000000,4.000000,4.000000,4.000000,4.000000,4.000000,4.000000,4.000000,4.000000,4.000000,4.000000,4.000000,4.000000,4.000000,4.000000,4.000000,4.000000,4.000000,4.000000,4.000000,4.000000,4.000000,4.000000,4.000000,100.000000,,,,,,,,,,,,,,,,,,,,,,,,,,,,,,,,,,
1626191537.838500,28.000000,0.000000,28.018402,33.917984,-54.495750,-22.395275,15.155040,18.451683,39.023655,29.644468,-4.945090,6.729460,36.209858,34.823879,30.047573,14.900256,8.818448,24.064184,40.680790,19.176434,11.187139,0.373587,9.783231,29.635078,44.937340,39.779312,2.788060,1.009503,37.375046,58.063450,28.172604,53.377613,3.157137,-105.468948,0.000000,0.000000,200.000000,1.000000,15.000000,,,,0.000000,4.000000,4.000000,4.000000,4.000000,4.000000,4.000000,4.000000,4.000000,4.000000,4.000000,4.000000,4.000000,4.000000,4.000000,4.000000,4.000000,4.000000,4.000000,4.000000,4.000000,4.000000,4.000000,4.000000,4.000000,4.000000,4.000000,4.000000,4.000000,4.000000,4.000000,4.000000,4.000000,100.000000,,,,,,,,,,,,,,,,,,,,,,,,,,,,,,,,,,
1626191537.846313,29.000000,0.000000,23.891922,31.834837,-48.805870,-22.372879,12.066039,14.334770,33.349247,23.979439,-6.989376,2.111961,30.025955,24.030594,20.283678,4.126894,4.711168,14.818581,28.344725,10.960334,5.028259,-4.749864,9.261140,22.945442,36.695480,34.616459,5.346810,11.254647,42.973053,58.005386,23.533663,53.836544,13.400134,-95.117325,0.000000,0.000000,194.000000,1.000000,15.000000,,,,0.000000,4.000000,4.000000,4.000000,4.000000,4.000000,4.000000,4.000000,4.000000,4.000000,4.000000,4.000000,4.000000,4.000000,4.000000,4.000000,4.000000,4.000000,4.000000,4.000000,4.000000,4.000000,4.000000,4.000000,4.000000,4.000000,4.000000,4.000000,4.000000,4.000000,4.000000,4.000000,4.000000,100.000000,,,,,,,,,,,,,,,,,,,,,,,,,,,,,,,,,,
1626191537.854026,30.000000,0.000000,28.478800,32.827618,-52.855526,-26.961277,7.443203,16.369667,33.315899,19.344690,-15.179310,3.134465,32.045162,26.568102,21.288010,6.171998,9.829534,13.266839,29.853304,12.486297,12.195539,4.988733,14.887263,32.656345,41.781860,41.754150,3.292233,12.780315,41.393158,61.021229,24.534744,50.196552,11.337503,-99.632980,0.000000,0.000000,206.000000,1.000000,15.000000,,,,0.000000,4.000000,4.000000,4.000000,4.000000,4.000000,4.000000,4.000000,4.000000,4.000000,4.000000,4.000000,4.000000,4.000000,4.000000,4.000000,4.000000,4.000000,4.000000,4.000000,4.000000,4.000000,4.000000,4.000000,4.000000,4.000000,4.000000,4.000000,4.000000,4.000000,4.000000,4.000000,4.000000,100.000000,,,,,,,,,,,,,,,,,,,,,,,,,,,,,,,,,,
1626191537.861839,31.000000,0.000000,26.913397,29.720943,-61.511898,-28.983545,9.484991,13.791759,30.208736,19.837652,-15.676438,1.082099,30.476192,27.566151,21.779030,5.653518,-1.451065,13.253572,35.971142,13.498425,14.232574,8.057590,12.823145,31.599072,43.789310,42.737011,1.752017,5.082920,35.204071,56.861748,25.022516,46.560204,4.153858,-107.730270,0.000000,0.000000,201.000000,1.000000,15.000000,,,,0.000000,4.000000,4.000000,4.000000,4.000000,4.000000,4.000000,4.000000,4.000000,4.000000,4.000000,4.000000,4.000000,4.000000,4.000000,4.000000,4.000000,4.000000,4.000000,4.000000,4.000000,4.000000,4.000000,4.000000,4.000000,4.000000,4.000000,4.000000,4.000000,4.000000,4.000000,4.000000,4.000000,100.000000,,,,,,,,,,,,,,,,,,,,,,,,,,,,,,,,,,
1626191537.869552,32.000000,0.000000,21.763407,30.715837,-49.155003,-20.757639,17.672430,12.753351,29.153913,25.965508,-6.439223,1.081017,28.396484,23.440123,21.757252,1.549403,-6.572690,15.801857,34.398247,15.021851,15.755264,4.463378,12.810322,27.981319,37.085522,39.108120,13.021034,11.225530,42.341175,56.292576,26.534416,54.198257,17.982012,-93.790230,4096.000000,0.000000,0.000000,1.000000,15.000000,,,,0.000000,4.000000,4.000000,4.000000,4.000000,4.000000,4.000000,4.000000,4.000000,4.000000,4.000000,4.000000,4.000000,4.000000,4.000000,4.000000,4.000000,4.000000,4.000000,4.000000,4.000000,4.000000,4.000000,4.000000,4.000000,4.000000,4.000000,4.000000,4.000000,4.000000,4.000000,4.000000,4.000000,100.000000,,,,,,,,,,,,,,,,,,,,,,,,,,,,,,,,,,
1626191537.877365,33.000000,0.000000,24.815491,32.222046,-47.568924,-22.786112,12.531680,15.302136,33.223221,25.939543,-7.969707,4.666090,34.003475,27.002836,28.907803,10.769392,13.926189,22.958363,36.413082,21.666828,22.399509,12.655838,17.408281,35.125645,38.585358,41.118240,12.495706,18.386612,47.934219,59.822437,28.557114,60.291752,26.673260,-88.573364,3968.000000,0.000000,0.000000,1.000000,15.000000,,,,0.000000,4.000000,4.000000,4.000000,4.000000,4.000000,4.000000,4.000000,4.000000,4.000000,4.000000,4.000000,4.000000,4.000000,4.000000,4.000000,4.000000,4.000000,4.000000,4.000000,4.000000,4.000000,4.000000,4.000000,4.000000,4.000000,4.000000,4.000000,4.000000,4.000000,4.000000,4.000000,4.000000,100.000000,,,,,,,,,,,,,,,,,,,,,,,,,,,,,,,,,,
1626191537.885078,34.000000,0.000000,27.864521,26.554438,-71.087509,-35.058712,0.736071,12.725296,31.140766,17.716681,-18.207891,1.587578,37.555622,33.635834,33.489662,18.443239,20.572264,26.009251,42.524361,26.255930,23.914032,15.204720,15.853950,37.139751,46.231388,41.589432,-3.398328,9.658994,40.201668,55.664154,25.454710,48.960690,9.740434,-107.952484,3968.000000,0.000000,0.000000,1.000000,15.000000,,,,0.000000,4.000000,4.000000,4.000000,4.000000,4.000000,4.000000,4.000000,4.000000,4.000000,4.000000,4.000000,4.000000,4.000000,4.000000,4.000000,4.000000,4.000000,4.000000,4.000000,4.000000,4.000000,4.000000,4.000000,4.000000,4.000000,4.000000,4.000000,4.000000,4.000000,4.000000,4.000000,4.000000,100.000000,,,,,,,,,,,,,,,,,,,,,,,,,,,,,,,,,,
1626191537.892891,35.000000,0.000000,26.299732,24.478653,-76.651810,-34.511345,3.809181,11.687955,27.523472,16.674347,-15.115837,-0.975548,36.493454,35.651428,32.943867,15.863256,13.891691,28.544781,40.944912,27.254290,24.402426,8.017208,15.838096,34.028763,46.697464,42.060150,0.191224,5.550874,35.038391,50.997719,20.818487,41.739422,0.509155,-117.066071,3968.000000,0.000000,0.000000,1.000000,15.000000,,,,0.000000,4.000000,4.000000,4.000000,4.000000,4.000000,4.000000,4.000000,4.000000,4.000000,4.000000,4.000000,4.000000,4.000000,4.000000,4.000000,4.000000,4.000000,4.000000,4.000000,4.000000,4.000000,4.000000,4.000000,4.000000,4.000000,4.000000,4.000000,4.000000,4.000000,4.000000,4.000000,4.000000,100.000000,,,,,,,,,,,,,,,,,,,,,,,,,,,,,,,,,,
1626191537.900604,36.000000,0.000000,24.736509,28.552635,-61.718231,-22.181448,9.440757,15.774729,31.082102,23.317673,-4.854567,2.099273,35.944653,34.078854,30.861691,17.384315,17.976261,28.003927,37.830120,21.591652,21.816484,6.472268,15.822258,31.945505,39.478458,40.481167,11.461802,11.180707,35.515659,53.508263,19.773052,46.308453,6.144030,-108.752075,3968.000000,0.000000,0.000000,1.000000,15.000000,,,,0.000000,4.000000,4.000000,4.000000,4.000000,4.000000,4.000000,4.000000,4.000000,4.000000,4.000000,4.000000,4.000000,4.000000,4.000000,4.000000,4.000000,4.000000,4.000000,4.000000,4.000000,4.000000,4.000000,4.000000,4.000000,4.000000,4.000000,4.000000,4.000000,4.000000,4.000000,4.000000,4.000000,100.000000,,,,,,,,,,,,,,,,,,,,,,,,,,,,,,,,,,
1626191537.908417,37.000000,0.000000,19.076389,22.888699,-60.119591,-21.134651,3.795931,11.148185,29.001789,21.757433,-8.435866,-2.001287,28.224091,23.798620,22.121599,12.243855,6.175208,15.168231,31.132292,5.176214,6.937746,1.342719,3.511051,20.130482,31.754366,28.657608,1.716494,6.558757,29.844759,48.331676,16.167126,41.139065,2.039424,-109.667938,3968.000000,0.000000,0.000000,1.000000,15.000000,,,,0.000000,4.000000,4.000000,4.000000,4.000000,4.000000,4.000000,4.000000,4.000000,4.000000,4.000000,4.000000,4.000000,4.000000,4.000000,4.000000,4.000000,4.000000,4.000000,4.000000,4.000000,4.000000,4.000000,4.000000,4.000000,4.000000,4.000000,4.000000,4.000000,4.000000,4.000000,4.000000,4.000000,100.000000,,,,,,,,,,,,,,,,,,,,,,,,,,,,,,,,,,
1626191537.916130,38.000000,0.000000,13.934236,12.107348,-71.330238,-29.822748,1.742905,3.964729,20.775864,17.637213,-16.624353,-6.097748,19.486637,14.553284,15.951785,0.448534,-14.835583,5.931525,20.855005,-0.976655,-0.753807,-2.244777,-4.177075,13.450352,29.161072,22.481258,-9.043684,-2.669340,21.105684,40.086422,11.540189,31.364080,-8.208769,-123.902885,3968.000000,0.000000,0.000000,1.000000,15.000000,,,,0.000000,4.000000,4.000000,4.000000,4.000000,4.000000,4.000000,4.000000,4.000000,4.000000,4.000000,4.000000,4.000000,4.000000,4.000000,4.000000,4.000000,4.000000,4.000000,4.000000,4.000000,4.000000,4.000000,4.000000,4.000000,4.000000,4.000000,4.000000,4.000000,4.000000,4.000000,4.000000,4.000000,100.000000,,,,,,,,,,,,,,,,,,,,,,,,,,,,,,,,,,
1626191537.923943,39.000000,0.000000,22.117224,18.755241,-73.820450,-28.768309,7.376546,10.108457,25.365858,22.230345,-13.533883,2.105273,27.664074,23.247961,23.620449,7.620394,-3.549978,14.122516,25.957228,10.295091,10.005408,6.466698,5.048640,25.732286,35.791912,32.192623,-3.911564,0.407176,23.646116,47.730949,18.700956,36.455795,-10.249791,-134.025146,3968.000000,0.000000,0.000000,1.000000,15.000000,,,,0.000000,4.000000,4.000000,4.000000,4.000000,4.000000,4.000000,4.000000,4.000000,4.000000,4.000000,4.000000,4.000000,4.000000,4.000000,4.000000,4.000000,4.000000,4.000000,4.000000,4.000000,4.000000,4.000000,4.000000,4.000000,4.000000,4.000000,4.000000,4.000000,4.000000,4.000000,4.000000,4.000000,100.000000,,,,,,,,,,,,,,,,,,,,,,,,,,,,,,,,,,
1626191537.931656,40.000000,0.000000,31.316647,33.081100,-61.451244,-19.005695,13.004555,18.807579,34.562031,28.868114,-4.811119,1.590860,36.857948,32.958561,30.769136,17.858927,11.310495,18.719162,39.251270,14.383257,14.093864,6.972539,8.629745,30.317324,42.928429,37.283508,-1.858421,9.628307,36.942471,58.441681,31.489948,47.177799,-2.554926,-119.546501,4096.000000,0.000000,0.000000,1.000000,15.000000,,,,0.000000,4.000000,4.000000,4.000000,4.000000,4.000000,4.000000,4.000000,4.000000,4.000000,4.000000,4.000000,4.000000,4.000000,4.000000,4.000000,4.000000,4.000000,4.000000,4.000000,4.000000,4.000000,4.000000,4.000000,4.000000,4.000000,4.000000,4.000000,4.000000,4.000000,4.000000,4.000000,4.000000,100.000000,,,,,,,,,,,,,,,,,,,,,,,,,,,,,,,,,,
1626191537.939469,41.000000,0.000000,29.748405,32.023403,-52.168255,-16.425152,16.065395,18.788771,32.478237,30.888477,-1.732461,-9.681499,30.673397,30.364063,25.615290,7.594914,-0.483892,14.089674,34.601250,8.221182,7.932078,-2.255972,0.936500,21.577776,40.323959,31.610840,-3.905794,9.106371,38.954758,54.284779,32.483074,50.204468,3.595322,-103.033104,4096.000000,0.000000,0.000000,1.000000,15.000000,,,,0.000000,4.000000,4.000000,4.000000,4.000000,4.000000,4.000000,4.000000,4.000000,4.000000,4.000000,4.000000,4.000000,4.000000,4.000000,4.000000,4.000000,4.000000,4.000000,4.000000,4.000000,4.000000,4.000000,4.000000,4.000000,4.000000,4.000000,4.000000,4.000000,4.000000,4.000000,4.000000,4.000000,100.000000,,,,,,,,,,,,,,,,,,,,,,,,,,,,,,,,,,
1626191537.947182,42.000000,0.000000,27.157120,26.355997,-60.825317,-18.457956,14.000100,19.282290,29.884220,30.857590,-0.193806,-4.548741,29.105801,28.284468,25.589674,5.025781,-0.995716,16.637123,31.492802,10.774499,11.510300,2.869361,-0.089052,23.093121,34.135944,29.529999,0.708881,3.974188,29.181959,48.082802,24.765974,45.031185,-3.068274,-115.225456,4096.000000,0.000000,0.000000,1.000000,15.000000,,,,0.000000,4.000000,4.000000,4.000000,4.000000,4.000000,4.000000,4.000000,4.000000,4.000000,4.000000,4.000000,4.000000,4.000000,4.000000,4.000000,4.000000,4.000000,4.000000,4.000000,4.000000,4.000000,4.000000,4.000000,4.000000,4.000000,4.000000,4.000000,4.000000,4.000000,4.000000,4.000000,4.000000,100.000000,,,,,,,,,,,,,,,,,,,,,,,,,,,,,,,,,,
1626191537.954895,43.000000,0.000000,26.105347,29.403486,-65.887566,-15.877960,12.449177,20.799931,34.977413,30.314425,5.441772,11.337346,36.249004,28.768492,30.687160,14.242293,12.837587,23.792793,38.121311,17.936031,17.646482,10.551106,4.009499,28.705412,34.614117,30.525084,2.757403,5.507136,27.103546,48.034718,19.105824,39.350769,-9.725205,-125.356384,4096.000000,0.000000,0.000000,1.000000,15.000000,,,,0.000000,4.000000,4.000000,4.000000,4.000000,4.000000,4.000000,4.000000,4.000000,4.000000,4.000000,4.000000,4.000000,4.000000,4.000000,4.000000,4.000000,4.000000,4.000000,4.000000,4.000000,4.000000,4.000000,4.000000,4.000000,4.000000,4.000000,4.000000,4.000000,4.000000,4.000000,4.000000,4.000000,100.000000,,,,,,,,,,,,,,,,,,,,,,,,,,,,,,,,,,
1626191537.962708,44.000000,0.000000,17.882318,27.324852,-55.063217,-12.788236,14.485958,15.143746,32.893204,29.259495,6.460946,10.813701,33.138908,23.616646,25.533398,11.154205,8.726289,19.670540,30.910881,11.770404,11.993450,2.343633,1.956258,19.967476,32.530270,25.883789,-7.491508,5.501629,28.101057,42.351299,14.475949,39.823727,-5.617019,-110.374107,4096.000000,0.000000,0.000000,1.000000,15.000000,,,,0.000000,4.000000,4.000000,4.000000,4.000000,4.000000,4.000000,4.000000,4.000000,4.000000,4.000000,4.000000,4.000000,4.000000,4.000000,4.000000,4.000000,4.000000,4.000000,4.000000,4.000000,4.000000,4.000000,4.000000,4.000000,4.000000,4.000000,4.000000,4.000000,4.000000,4.000000,4.000000,4.000000,100.000000,,,,,,,,,,,,,,,,,,,,,,,,,,,,,,,,,,
