title:_Mot_2, start timestamp:1626187390.882118, stop timestamp:1626187398.273011, headset type:EPOCFLEX, headset serial:F00001B8, headset firmware:f14, channels:111, sampling rate:128, samples:945       , version:2.1, 
Timestamp,EEG.Counter,EEG.Interpolated,EEG.Cz,EEG.Fz,EEG.Fp1,EEG.F7,EEG.F3,EEG.FC1,EEG.C3,EEG.FC5,EEG.FT9,EEG.T7,EEG.CP5,EEG.CP1,EEG.P3,EEG.P7,EEG.PO9,EEG.O1,EEG.Pz,EEG.Oz,EEG.O2,EEG.PO10,EEG.P8,EEG.P4,EEG.CP2,EEG.CP6,EEG.T8,EEG.FT10,EEG.FC6,EEG.C4,EEG.FC2,EEG.F4,EEG.F8,EEG.Fp2,EEG.HighBitFlex,EEG.SaturationFlag,EEG.RawCq,EEG.Battery,EEG.BatteryPercent,MarkerIndex,MarkerType,MarkerValueInt,EEG.MarkerHardware,CQ.Cz,CQ.Fz,CQ.Fp1,CQ.F7,CQ.F3,CQ.FC1,CQ.C3,CQ.FC5,CQ.FT9,CQ.T7,CQ.CP5,CQ.CP1,CQ.P3,CQ.P7,CQ.PO9,CQ.O1,CQ.Pz,CQ.Oz,CQ.O2,CQ.PO10,CQ.P8,CQ.P4,CQ.CP2,CQ.CP6,CQ.T8,CQ.FT10,CQ.FC6,CQ.C4,CQ.FC2,CQ.F4,CQ.F8,CQ.Fp2,CQ.Overall,EQ.SampleRateQuality,EQ.OVERALL,EQ.Cz,EQ.Fz,EQ.Fp1,EQ.F7,EQ.F3,EQ.FC1,EQ.C3,EQ.FC5,EQ.FT9,EQ.T7,EQ.CP5,EQ.CP1,EQ.P3,EQ.P7,EQ.PO9,EQ.O1,EQ.Pz,EQ.Oz,EQ.O2,EQ.PO10,EQ.P8,EQ.P4,EQ.CP2,EQ.CP6,EQ.T8,EQ.FT10,EQ.FC6,EQ.C4,EQ.FC2,EQ.F4,EQ.F8,EQ.Fp2
1626187390.882118,81.000000,0.000000,14.210785,4.800915,-89.741013,-5.705945,4.408093,10.456902,9.051390,10.739408,10.898450,-2.848088,6.021778,24.295271,21.975733,10.144958,32.044281,21.775364,18.721920,17.580660,18.133638,11.876276,0.032729,12.665093,28.581858,17.917866,-4.556432,0.938470,0.576591,24.191587,7.289764,-13.557946,-32.144447,-150.722321,0.000000,0.000000,196.000000,3.000000,59.000000,,,,0.000000,4.000000,4.000000,4.000000,4.000000,4.000000,4.000000,4.000000,4.000000,4.000000,4.000000,4.000000,4.000000,4.000000,4.000000,4.000000,4.000000,4.000000,4.000000,4.000000,4.000000,4.000000,4.000000,4.000000,4.000000,4.000000,4.000000,4.000000,4.000000,4.000000,4.000000,4.000000,4.000000,100.000000,,,,,,,,,,,,,,,,,,,,,,,,,,,,,,,,,,
1626187390.889831,82.000000,0.000000,17.270420,2.746883,-90.675880,-3.138700,6.452916,16.594137,13.653108,18.925592,19.084475,5.863991,13.188064,31.443283,21.441448,18.331736,38.159931,27.388973,17.166275,26.272310,25.287811,14.938246,4.131158,17.263197,33.676353,21.486101,-2.502645,0.425224,2.625245,24.679703,9.844013,-11.495157,-31.087687,-149.034683,0.000000,0.000000,203.000000,3.000000,59.000000,,,,0.000000,4.000000,4.000000,4.000000,4.000000,4.000000,4.000000,4.000000,4.000000,4.000000,4.000000,4.000000,4.000000,4.000000,4.000000,4.000000,4.000000,4.000000,4.000000,4.000000,4.000000,4.000000,4.000000,4.000000,4.000000,4.000000,4.000000,4.000000,4.000000,4.000000,4.000000,4.000000,4.000000,100.000000,,,,,,,,,,,,,,,,,,,,,,,,,,,,,,,,,,
1626187390.897645,83.000000,0.000000,13.666996,1.719521,-95.195976,-2.623254,4.397232,12.479081,10.565609,19.418974,16.503851,3.808896,14.199492,26.288763,22.444622,22.411865,45.806385,30.947739,16.124493,31.369114,31.922523,21.071001,8.225489,20.832088,32.105755,25.563076,6.721396,-3.161355,1.085697,26.704254,6.248015,-15.069816,-32.593521,-157.594879,0.000000,0.000000,206.000000,3.000000,59.000000,,,,0.000000,4.000000,4.000000,4.000000,4.000000,4.000000,4.000000,4.000000,4.000000,4.000000,4.000000,4.000000,4.000000,4.000000,4.000000,4.000000,4.000000,4.000000,4.000000,4.000000,4.000000,4.000000,4.000000,4.000000,4.000000,4.000000,4.000000,4.000000,4.000000,4.000000,4.000000,4.000000,4.000000,100.000000,,,,,,,,,,,,,,,,,,,,,,,,,,,,,,,,,,
1626187390.905358,84.000000,0.000000,12.116406,-0.843737,-99.711548,-8.256015,4.392835,9.905064,6.456582,15.813401,10.339656,0.218933,10.599137,20.627089,24.983717,21.877146,52.420578,31.941406,11.497599,30.313129,28.816755,24.636084,5.655725,16.200487,25.925957,21.439053,5.177752,-2.645886,-4.038466,24.116011,1.118690,-19.153208,-39.733238,-165.121902,0.000000,0.000000,196.000000,3.000000,59.000000,,,,0.000000,4.000000,4.000000,4.000000,4.000000,4.000000,4.000000,4.000000,4.000000,4.000000,4.000000,4.000000,4.000000,4.000000,4.000000,4.000000,4.000000,4.000000,4.000000,4.000000,4.000000,4.000000,4.000000,4.000000,4.000000,4.000000,4.000000,4.000000,4.000000,4.000000,4.000000,4.000000,4.000000,100.000000,,,,,,,,,,,,,,,,,,,,,,,,,,,,,,,,,,
1626187390.913271,85.000000,0.000000,22.862751,8.890952,-87.828758,-1.075451,11.048442,21.165928,16.696280,22.457588,14.940085,8.927945,16.736231,28.291077,29.569502,26.978346,52.880466,33.446388,11.998409,31.819740,26.738708,31.271446,9.748530,21.307364,36.146183,35.249920,6.709497,7.090606,9.797880,30.751896,14.949879,-6.326362,-26.885811,-150.099854,0.000000,0.000000,208.000000,3.000000,59.000000,,,,0.000000,4.000000,4.000000,4.000000,4.000000,4.000000,4.000000,4.000000,4.000000,4.000000,4.000000,4.000000,4.000000,4.000000,4.000000,4.000000,4.000000,4.000000,4.000000,4.000000,4.000000,4.000000,4.000000,4.000000,4.000000,4.000000,4.000000,4.000000,4.000000,4.000000,4.000000,4.000000,4.000000,100.000000,,,,,,,,,,,,,,,,,,,,,,,,,,,,,,,,,,
1626187390.921085,86.000000,0.000000,35.647579,28.862062,-68.785545,12.245624,22.308163,32.415531,26.925735,32.681286,24.658991,15.066710,26.453341,37.996632,34.150703,33.099060,50.266048,33.925247,26.843334,35.374073,33.371971,36.363251,23.571089,35.630672,51.479267,54.170055,24.121250,23.989670,30.792698,50.188835,36.451851,14.684580,-5.342002,-125.871292,0.000000,0.000000,210.000000,3.000000,59.000000,,,,0.000000,4.000000,4.000000,4.000000,4.000000,4.000000,4.000000,4.000000,4.000000,4.000000,4.000000,4.000000,4.000000,4.000000,4.000000,4.000000,4.000000,4.000000,4.000000,4.000000,4.000000,4.000000,4.000000,4.000000,4.000000,4.000000,4.000000,4.000000,4.000000,4.000000,4.000000,4.000000,4.000000,100.000000,,,,,,,,,,,,,,,,,,,,,,,,,,,,,,,,,,
1626187390.928998,87.000000,0.000000,34.587318,30.370123,-66.155228,11.208763,29.970470,35.969269,24.849579,35.210140,23.609716,12.490104,24.889965,41.544788,35.141167,31.016731,51.752705,32.866707,31.427259,35.338699,38.461674,31.716120,27.645981,39.693501,51.940098,52.066654,31.781744,32.162601,31.786520,58.335571,39.489246,21.329895,-3.799737,-117.548492,0.000000,0.000000,211.000000,3.000000,59.000000,,,,0.000000,4.000000,4.000000,4.000000,4.000000,4.000000,4.000000,4.000000,4.000000,4.000000,4.000000,4.000000,4.000000,4.000000,4.000000,4.000000,4.000000,4.000000,4.000000,4.000000,4.000000,4.000000,4.000000,4.000000,4.000000,4.000000,4.000000,4.000000,4.000000,4.000000,4.000000,4.000000,4.000000,100.000000,,,,,,,,,,,,,,,,,,,,,,,,,,,,,,,,,,
1626187390.936812,88.000000,0.000000,26.355808,21.630522,-71.724457,7.611400,26.354345,33.884068,23.800116,32.613392,16.926107,10.428383,21.278921,37.404785,30.495256,24.838022,45.553261,28.735380,19.100449,30.692591,30.738598,26.049019,16.859873,34.018425,48.302002,44.329971,19.966885,22.908901,23.045504,48.031082,30.228218,14.136257,-10.968246,-123.066330,0.000000,0.000000,192.000000,3.000000,59.000000,,,,0.000000,4.000000,4.000000,4.000000,4.000000,4.000000,4.000000,4.000000,4.000000,4.000000,4.000000,4.000000,4.000000,4.000000,4.000000,4.000000,4.000000,4.000000,4.000000,4.000000,4.000000,4.000000,4.000000,4.000000,4.000000,4.000000,4.000000,4.000000,4.000000,4.000000,4.000000,4.000000,4.000000,100.000000,,,,,,,,,,,,,,,,,,,,,,,,,,,,,,,,,,
1626187390.944725,89.000000,0.000000,23.767914,20.071968,-74.214264,10.165327,17.618761,27.702494,24.288622,31.556164,16.396873,5.807186,22.282257,30.707378,27.390915,21.739338,32.187706,22.558952,17.544424,24.514206,19.949396,18.338354,8.646090,29.885944,47.741394,42.236412,9.700765,9.053685,16.362457,38.761513,25.074913,4.900583,-15.568047,-129.603271,0.000000,0.000000,198.000000,3.000000,59.000000,,,,0.000000,4.000000,4.000000,4.000000,4.000000,4.000000,4.000000,4.000000,4.000000,4.000000,4.000000,4.000000,4.000000,4.000000,4.000000,4.000000,4.000000,4.000000,4.000000,4.000000,4.000000,4.000000,4.000000,4.000000,4.000000,4.000000,4.000000,4.000000,4.000000,4.000000,4.000000,4.000000,4.000000,100.000000,,,,,,,,,,,,,,,,,,,,,,,,,,,,,,,,,,
1626187390.952539,90.000000,0.000000,21.182608,15.441127,-80.800056,7.081316,14.527296,22.551714,20.678181,28.450762,16.380476,1.190609,21.747667,28.627441,27.363523,21.205290,30.618595,18.950239,22.649956,20.391232,19.417139,9.098478,6.588213,25.757597,42.058266,36.046482,5.592602,3.921554,9.173787,37.698135,21.463686,-1.764318,-27.847862,-141.256744,0.000000,0.000000,194.000000,3.000000,59.000000,,,,0.000000,4.000000,4.000000,4.000000,4.000000,4.000000,4.000000,4.000000,4.000000,4.000000,4.000000,4.000000,4.000000,4.000000,4.000000,4.000000,4.000000,4.000000,4.000000,4.000000,4.000000,4.000000,4.000000,4.000000,4.000000,4.000000,4.000000,4.000000,4.000000,4.000000,4.000000,4.000000,4.000000,100.000000,,,,,,,,,,,,,,,,,,,,,,,,,,,,,,,,,,
1626187390.960452,91.000000,0.000000,14.501425,11.839532,-86.354637,0.414235,10.926615,21.504547,18.095963,23.299234,11.241019,0.164803,20.188997,28.598812,26.823853,20.671778,35.198746,20.468212,19.553461,20.883148,21.959261,11.650918,4.020086,22.657993,36.893131,30.887360,0.976240,1.868402,6.090767,35.611206,18.880682,-3.811785,-34.992321,-152.898560,0.000000,0.000000,194.000000,3.000000,59.000000,,,,0.000000,4.000000,4.000000,4.000000,4.000000,4.000000,4.000000,4.000000,4.000000,4.000000,4.000000,4.000000,4.000000,4.000000,4.000000,4.000000,4.000000,4.000000,4.000000,4.000000,4.000000,4.000000,4.000000,4.000000,4.000000,4.000000,4.000000,4.000000,4.000000,4.000000,4.000000,4.000000,4.000000,100.000000,,,,,,,,,,,,,,,,,,,,,,,,,,,,,,,,,,
1626187390.968265,92.000000,0.000000,13.974615,15.413846,-83.706741,-1.123103,6.817226,19.433811,15.516329,19.177473,9.180547,-0.347669,18.119577,26.008677,25.260105,20.138798,31.577393,21.472359,18.509293,22.911495,19.888071,15.225421,2.479143,22.635334,37.368546,29.831858,0.975264,0.329611,8.646215,30.964825,19.886417,-0.734127,-30.346561,-148.134888,0.000000,0.000000,198.000000,3.000000,59.000000,,,,0.000000,4.000000,4.000000,4.000000,4.000000,4.000000,4.000000,4.000000,4.000000,4.000000,4.000000,4.000000,4.000000,4.000000,4.000000,4.000000,4.000000,4.000000,4.000000,4.000000,4.000000,4.000000,4.000000,4.000000,4.000000,4.000000,4.000000,4.000000,4.000000,4.000000,4.000000,4.000000,4.000000,100.000000,1.000000,100.000000,4.000000,4.000000,4.000000,4.000000,4.000000,4.000000,4.000000,4.000000,4.000000,4.000000,4.000000,4.000000,4.000000,4.000000,4.000000,4.000000,4.000000,4.000000,4.000000,4.000000,4.000000,4.000000,4.000000,4.000000,4.000000,4.000000,4.000000,4.000000,4.000000,4.000000,4.000000,4.000000
1626187390.976179,93.000000,0.000000,17.034487,14.886125,-83.110733,0.414943,10.908871,18.389761,11.402351,19.670603,12.757521,0.677294,14.515304,23.933435,21.136383,17.557121,31.033508,18.889349,19.515398,21.351660,17.306644,6.500965,-1.109490,18.001930,35.794254,24.166641,-0.562634,-1.207642,6.076031,28.372322,20.378839,-1.245700,-32.365444,-137.740601,0.000000,0.000000,198.000000,3.000000,59.000000,,,,0.000000,4.000000,4.000000,4.000000,4.000000,4.000000,4.000000,4.000000,4.000000,4.000000,4.000000,4.000000,4.000000,4.000000,4.000000,4.000000,4.000000,4.000000,4.000000,4.000000,4.000000,4.000000,4.000000,4.000000,4.000000,4.000000,4.000000,4.000000,4.000000,4.000000,4.000000,4.000000,4.000000,100.000000,,,,,,,,,,,,,,,,,,,,,,,,,,,,,,,,,,
1626187390.984092,94.000000,0.000000,14.948131,11.783033,-84.482025,0.412577,16.006042,17.329411,4.211349,20.655386,14.265355,4.773377,7.829873,18.252258,9.315154,8.815354,34.558140,13.731073,13.839977,14.650516,11.639226,-10.409475,-12.886763,5.162862,25.990393,11.316275,-6.707665,-7.863691,-2.130477,23.707397,18.288359,-7.390390,-41.520237,-130.303192,0.000000,0.000000,206.000000,3.000000,59.000000,,,,0.000000,4.000000,4.000000,4.000000,4.000000,4.000000,4.000000,4.000000,4.000000,4.000000,4.000000,4.000000,4.000000,4.000000,4.000000,4.000000,4.000000,4.000000,4.000000,4.000000,4.000000,4.000000,4.000000,4.000000,4.000000,4.000000,4.000000,4.000000,4.000000,4.000000,4.000000,4.000000,4.000000,100.000000,,,,,,,,,,,,,,,,,,,,,,,,,,,,,,,,,,
1626187390.991906,95.000000,0.000000,7.248567,9.209712,-84.909851,-4.710912,8.305421,11.676696,-1.428248,14.999345,7.078782,3.743988,2.698967,12.598621,3.158146,2.146539,28.375889,8.081958,5.116907,9.512788,5.479894,-11.935989,-16.972338,1.571546,17.767479,7.206497,-8.237881,-9.392751,-5.202193,19.585228,14.171609,-11.993769,-44.040253,-137.857513,0.000000,0.000000,197.000000,3.000000,59.000000,,,,0.000000,4.000000,4.000000,4.000000,4.000000,4.000000,4.000000,4.000000,4.000000,4.000000,4.000000,4.000000,4.000000,4.000000,4.000000,4.000000,4.000000,4.000000,4.000000,4.000000,4.000000,4.000000,4.000000,4.000000,4.000000,4.000000,4.000000,4.000000,4.000000,4.000000,4.000000,4.000000,4.000000,100.000000,,,,,,,,,,,,,,,,,,,,,,,,,,,,,,,,,,
1626187390.999820,96.000000,0.000000,9.290549,3.565118,-86.874176,-5.218509,9.834039,7.566558,-3.476050,13.447423,6.559396,2.715629,-1.914502,7.975253,4.179604,2.144393,21.687511,1.413876,3.062559,4.380198,3.425184,-12.948668,-15.930750,0.033051,16.212790,10.785444,-8.229643,-4.772589,-4.684683,20.590260,15.182053,-10.957160,-41.946983,-140.793503,3968.000000,0.000000,0.000000,3.000000,59.000000,,,,0.000000,4.000000,4.000000,4.000000,4.000000,4.000000,4.000000,4.000000,4.000000,4.000000,4.000000,4.000000,4.000000,4.000000,4.000000,4.000000,4.000000,4.000000,4.000000,4.000000,4.000000,4.000000,4.000000,4.000000,4.000000,4.000000,4.000000,4.000000,4.000000,4.000000,4.000000,4.000000,4.000000,100.000000,,,,,,,,,,,,,,,,,,,,,,,,,,,,,,,,,,
1626187391.007633,97.000000,0.000000,14.404335,9.709245,-84.738068,-0.090214,19.558050,12.169761,4.212041,19.069361,11.675913,6.811375,1.161259,9.504201,8.273886,5.216094,25.251978,2.437078,5.108727,1.814279,4.958682,-9.861874,-15.914819,0.545326,21.831961,18.459274,-7.709105,-1.181662,4.029233,28.766592,23.363794,-3.261587,-35.757343,-138.603470,4096.000000,0.000000,0.000000,3.000000,59.000000,,,,0.000000,4.000000,4.000000,4.000000,4.000000,4.000000,4.000000,4.000000,4.000000,4.000000,4.000000,4.000000,4.000000,4.000000,4.000000,4.000000,4.000000,4.000000,4.000000,4.000000,4.000000,4.000000,4.000000,4.000000,4.000000,4.000000,4.000000,4.000000,4.000000,4.000000,4.000000,4.000000,4.000000,100.000000,,,,,,,,,,,,,,,,,,,,,,,,,,,,,,,,,,
1626187391.015547,98.000000,0.000000,18.488392,20.970304,-79.017944,1.959107,20.050800,20.866821,8.818599,20.074905,15.762699,9.366101,6.795482,16.667006,11.851766,8.797032,29.837496,5.508487,7.152849,2.324773,3.929107,-7.290473,-11.800443,5.667858,25.908590,18.440815,0.495527,0.868750,10.172895,31.811672,30.000429,4.938598,-29.573895,-126.681793,4096.000000,0.000000,0.000000,3.000000,59.000000,,,,0.000000,4.000000,4.000000,4.000000,4.000000,4.000000,4.000000,4.000000,4.000000,4.000000,4.000000,4.000000,4.000000,4.000000,4.000000,4.000000,4.000000,4.000000,4.000000,4.000000,4.000000,4.000000,4.000000,4.000000,4.000000,4.000000,4.000000,4.000000,4.000000,4.000000,4.000000,4.000000,4.000000,100.000000,,,,,,,,,,,,,,,,,,,,,,,,,,,,,,,,,,
1626187391.023361,99.000000,0.000000,25.642212,19.924719,-76.377388,1.957148,17.981520,26.481339,10.859011,21.079447,16.771551,8.844428,10.374841,21.261106,15.938375,16.472851,33.393810,7.039901,13.293388,5.908602,9.560563,-4.721644,-2.567104,12.322189,28.956528,17.910067,9.716570,6.503266,7.601184,28.706013,31.507353,9.032121,-29.032013,-113.235115,4096.000000,0.000000,0.000000,3.000000,59.000000,,,,0.000000,4.000000,4.000000,4.000000,4.000000,4.000000,4.000000,4.000000,4.000000,4.000000,4.000000,4.000000,4.000000,4.000000,4.000000,4.000000,4.000000,4.000000,4.000000,4.000000,4.000000,4.000000,4.000000,4.000000,4.000000,4.000000,4.000000,4.000000,4.000000,4.000000,4.000000,4.000000,4.000000,100.000000,,,,,,,,,,,,,,,,,,,,,,,,,,,,,,,,,,
1626187391.031274,100.000000,0.000000,29.715031,22.978642,-73.739471,6.565960,22.574306,26.454859,16.995844,26.181444,19.828627,9.347891,13.950620,22.776770,20.020899,20.554840,38.483494,15.229784,24.038557,16.148848,23.383310,8.090770,5.632386,20.506790,37.636803,27.626003,14.317622,12.644455,10.667429,35.337307,33.525074,12.096934,-22.855288,-110.048035,4096.000000,0.000000,0.000000,3.000000,59.000000,,,,0.000000,4.000000,4.000000,4.000000,4.000000,4.000000,4.000000,4.000000,4.000000,4.000000,4.000000,4.000000,4.000000,4.000000,4.000000,4.000000,4.000000,4.000000,4.000000,4.000000,4.000000,4.000000,4.000000,4.000000,4.000000,4.000000,4.000000,4.000000,4.000000,4.000000,4.000000,4.000000,4.000000,100.000000,,,,,,,,,,,,,,,,,,,,,,,,,,,,,,,,,,
1626187391.039088,101.000000,0.000000,27.636086,31.664892,-71.104195,7.071702,24.600964,24.379171,16.466541,21.544493,22.882643,7.289312,14.448977,24.803223,20.513186,14.898900,37.932705,22.899170,27.600672,24.841928,28.483004,17.816525,10.749831,28.170898,43.746857,35.282993,19.938690,15.193349,17.316761,47.085049,37.590012,16.183300,-14.635510,-110.450294,4096.000000,0.000000,0.000000,3.000000,59.000000,,,,0.000000,4.000000,4.000000,4.000000,4.000000,4.000000,4.000000,4.000000,4.000000,4.000000,4.000000,4.000000,4.000000,4.000000,4.000000,4.000000,4.000000,4.000000,4.000000,4.000000,4.000000,4.000000,4.000000,4.000000,4.000000,4.000000,4.000000,4.000000,4.000000,4.000000,4.000000,4.000000,4.000000,100.000000,,,,,,,,,,,,,,,,,,,,,,,,,,,,,,,,,,
1626187391.047001,102.000000,0.000000,26.071526,28.559381,-73.594627,3.478476,23.551746,25.891716,11.839305,16.399872,20.298222,2.158946,8.799143,21.704573,17.418825,9.248616,33.284000,16.728579,18.863840,19.694010,23.843752,11.651016,8.689850,25.068882,40.116959,29.612324,17.357212,12.104310,14.225599,44.988731,37.552422,17.191730,-20.256260,-115.975227,4096.000000,0.000000,0.000000,3.000000,59.000000,,,,0.000000,4.000000,4.000000,4.000000,4.000000,4.000000,4.000000,4.000000,4.000000,4.000000,4.000000,4.000000,4.000000,4.000000,4.000000,4.000000,4.000000,4.000000,4.000000,4.000000,4.000000,4.000000,4.000000,4.000000,4.000000,4.000000,4.000000,4.000000,4.000000,4.000000,4.000000,4.000000,4.000000,100.000000,,,,,,,,,,,,,,,,,,,,,,,,,,,,,,,,,,
1626187391.054815,103.000000,0.000000,21.946993,23.407745,-73.008728,7.061152,23.015888,25.353518,15.413619,24.580395,16.179462,3.693710,6.741113,18.096716,13.815253,9.239367,31.201487,11.076466,14.746515,13.014317,20.746061,5.491673,4.582699,18.383814,33.929146,21.898096,5.556778,6.969129,7.039066,32.136051,28.805639,11.026847,-27.408310,-125.593094,4096.000000,0.000000,0.000000,3.000000,59.000000,,,,0.000000,4.000000,4.000000,4.000000,4.000000,4.000000,4.000000,4.000000,4.000000,4.000000,4.000000,4.000000,4.000000,4.000000,4.000000,4.000000,4.000000,4.000000,4.000000,4.000000,4.000000,4.000000,4.000000,4.000000,4.000000,4.000000,4.000000,4.000000,4.000000,4.000000,4.000000,4.000000,4.000000,100.000000,,,,,,,,,,,,,,,,,,,,,,,,,,,,,,,,,,
1626187391.062729,104.000000,0.000000,14.240431,18.261261,-72.935722,6.029475,17.869795,19.692778,16.935129,24.555815,16.163282,7.276170,10.320526,20.640156,14.826054,8.717821,30.145670,14.139235,17.293306,14.025917,17.651468,4.461566,0.479655,16.828506,30.309065,14.191583,0.428144,4.912929,0.372027,24.419298,19.042988,1.794282,-28.917826,-123.418274,4096.000000,0.000000,0.000000,3.000000,59.000000,,,,0.000000,4.000000,4.000000,4.000000,4.000000,4.000000,4.000000,4.000000,4.000000,4.000000,4.000000,4.000000,4.000000,4.000000,4.000000,4.000000,4.000000,4.000000,4.000000,4.000000,4.000000,4.000000,4.000000,4.000000,4.000000,4.000000,4.000000,4.000000,4.000000,4.000000,4.000000,4.000000,4.000000,100.000000,,,,,,,,,,,,,,,,,,,,,,,,,,,,,,,,,,
1626187391.070542,105.000000,0.000000,12.176960,9.021461,-82.596626,-5.759631,11.191925,16.086931,7.696655,13.772798,11.024043,3.682740,8.773282,19.082594,16.860458,8.709103,31.140141,11.051250,14.202168,9.913430,10.973818,-0.665973,-10.279286,10.663985,24.131063,6.492776,-1.621514,-0.215061,-7.825268,20.808725,15.437790,-4.867512,-34.524292,-117.659470,4096.000000,0.000000,0.000000,3.000000,59.000000,,,,0.000000,4.000000,4.000000,4.000000,4.000000,4.000000,4.000000,4.000000,4.000000,4.000000,4.000000,4.000000,4.000000,4.000000,4.000000,4.000000,4.000000,4.000000,4.000000,4.000000,4.000000,4.000000,4.000000,4.000000,4.000000,4.000000,4.000000,4.000000,4.000000,4.000000,4.000000,4.000000,4.000000,100.000000,,,,,,,,,,,,,,,,,,,,,,,,,,,,,,,,,,
1626187391.078456,106.000000,0.000000,15.750937,15.160131,-84.563263,-5.753871,13.229963,17.095461,3.078189,15.295947,6.402250,1.629827,4.666048,16.501972,16.843597,9.725009,31.621307,6.941737,14.700274,4.780439,6.864382,-4.763768,-16.929007,3.993321,22.570009,5.973976,-4.181431,-4.313308,-5.768212,19.250994,16.446968,-3.325722,-34.489769,-123.177193,4096.000000,0.000000,0.000000,3.000000,59.000000,,,,0.000000,4.000000,4.000000,4.000000,4.000000,4.000000,4.000000,4.000000,4.000000,4.000000,4.000000,4.000000,4.000000,4.000000,4.000000,4.000000,4.000000,4.000000,4.000000,4.000000,4.000000,4.000000,4.000000,4.000000,4.000000,4.000000,4.000000,4.000000,4.000000,4.000000,4.000000,4.000000,4.000000,100.000000,,,,,,,,,,,,,,,,,,,,,,,,,,,,,,,,,,
1626187391.086270,107.000000,0.000000,18.809032,22.829588,-72.183319,5.522652,19.876734,20.664518,7.173573,20.916037,14.080462,7.263582,10.296766,23.145470,17.851370,10.227592,29.028149,11.033257,20.320957,8.874121,6.857518,-3.222081,-10.252078,9.112405,30.232054,10.578771,0.433519,1.838698,3.971402,25.891743,21.553598,2.312989,-24.209124,-125.103249,4096.000000,0.000000,0.000000,3.000000,59.000000,,,,0.000000,4.000000,4.000000,4.000000,4.000000,4.000000,4.000000,4.000000,4.000000,4.000000,4.000000,4.000000,4.000000,4.000000,4.000000,4.000000,4.000000,4.000000,4.000000,4.000000,4.000000,4.000000,4.000000,4.000000,4.000000,4.000000,4.000000,4.000000,4.000000,4.000000,4.000000,4.000000,4.000000,100.000000,,,,,,,,,,,,,,,,,,,,,,,,,,,,,,,,,,
1626187391.094183,108.000000,0.000000,21.351761,14.609835,-67.500366,6.541744,22.418396,21.156162,8.191014,18.845890,21.750998,9.305549,14.897239,25.683863,18.858133,8.680441,28.486813,11.534531,18.251406,9.377554,8.899891,-3.218859,-9.729519,14.226370,31.226439,11.592808,1.970009,6.447628,5.504354,31.501236,25.118198,1.798368,-20.086454,-119.342758,4096.000000,0.000000,0.000000,3.000000,59.000000,,,,0.000000,4.000000,4.000000,4.000000,4.000000,4.000000,4.000000,4.000000,4.000000,4.000000,4.000000,4.000000,4.000000,4.000000,4.000000,4.000000,4.000000,4.000000,4.000000,4.000000,4.000000,4.000000,4.000000,4.000000,4.000000,4.000000,4.000000,4.000000,4.000000,4.000000,4.000000,4.000000,4.000000,100.000000,,,,,,,,,,,,,,,,,,,,,,,,,,,,,,,,,,
1626187391.102097,109.000000,0.000000,20.818102,14.595224,-72.043633,2.436741,17.785208,18.061159,5.108977,20.363966,15.581554,4.685474,9.246957,23.608950,16.790045,6.110222,27.433710,7.936842,17.208540,5.782023,9.403299,-5.777179,-12.793635,13.187528,27.609058,15.679676,-0.593500,3.367335,9.085003,29.420504,22.531542,1.796569,-18.529444,-112.051109,4096.000000,0.000000,0.000000,3.000000,59.000000,,,,0.000000,4.000000,4.000000,4.000000,4.000000,4.000000,4.000000,4.000000,4.000000,4.000000,4.000000,4.000000,4.000000,4.000000,4.000000,4.000000,4.000000,4.000000,4.000000,4.000000,4.000000,4.000000,4.000000,4.000000,4.000000,4.000000,4.000000,4.000000,4.000000,4.000000,4.000000,4.000000,4.000000,100.000000,,,,,,,,,,,,,,,,,,,,,,,,,,,,,,,,,,
1626187391.109911,110.000000,0.000000,22.334208,24.314476,-69.410049,4.995842,15.205884,21.116945,9.202330,23.417448,10.955204,3.656173,11.286941,31.782263,19.334793,12.251804,29.967815,14.076598,25.900560,11.923933,12.980049,-0.648325,-1.510072,20.346647,37.827602,25.910151,8.628633,6.437813,21.883610,34.001854,29.681318,13.577849,-11.338607,-102.717522,4096.000000,0.000000,0.000000,3.000000,59.000000,,,,0.000000,4.000000,4.000000,4.000000,4.000000,4.000000,4.000000,4.000000,4.000000,4.000000,4.000000,4.000000,4.000000,4.000000,4.000000,4.000000,4.000000,4.000000,4.000000,4.000000,4.000000,4.000000,4.000000,4.000000,4.000000,4.000000,4.000000,4.000000,4.000000,4.000000,4.000000,4.000000,4.000000,100.000000,,,,,,,,,,,,,,,,,,,,,,,,,,,,,,,,,,
1626187391.117824,111.000000,0.000000,31.021103,22.240931,-67.803719,6.527770,20.826063,28.268135,16.877743,22.369415,16.067326,7.750978,22.546423,36.873558,27.512381,21.973398,40.184002,21.234829,27.923891,18.572010,18.602453,7.036939,6.176053,27.498610,45.986698,29.982702,16.304619,10.529838,22.374035,44.726311,41.947021,21.248888,-10.814960,-104.151726,4096.000000,0.000000,0.000000,3.000000,59.000000,,,,0.000000,4.000000,4.000000,4.000000,4.000000,4.000000,4.000000,4.000000,4.000000,4.000000,4.000000,4.000000,4.000000,4.000000,4.000000,4.000000,4.000000,4.000000,4.000000,4.000000,4.000000,4.000000,4.000000,4.000000,4.000000,4.000000,4.000000,4.000000,4.000000,4.000000,4.000000,4.000000,4.000000,100.000000,,,,,,,,,,,,,,,,,,,,,,,,,,,,,,,,,,
1626187391.125638,112.000000,0.000000,26.379313,15.558689,-74.395912,2.935088,20.805237,22.092175,16.348557,21.834740,17.588181,11.841689,18.425415,26.590530,22.874100,13.754502,37.069969,15.065902,18.674429,14.454976,14.997698,1.906825,-1.002431,18.761879,33.645325,26.878872,4.505238,3.859307,9.543968,38.021587,32.171227,10.981484,-18.488762,-116.342957,4096.000000,0.000000,0.000000,3.000000,59.000000,,,,0.000000,4.000000,4.000000,4.000000,4.000000,4.000000,4.000000,4.000000,4.000000,4.000000,4.000000,4.000000,4.000000,4.000000,4.000000,4.000000,4.000000,4.000000,4.000000,4.000000,4.000000,4.000000,4.000000,4.000000,4.000000,4.000000,4.000000,4.000000,4.000000,4.000000,4.000000,4.000000,4.000000,100.000000,,,,,,,,,,,,,,,,,,,,,,,,,,,,,,,,,,
1626187391.133551,113.000000,0.000000,10.471395,8.883131,-77.907669,0.370615,11.050586,10.287005,7.622978,19.251366,12.447516,8.756001,7.648528,15.805478,10.043533,3.494594,21.151361,5.829298,10.971139,9.317444,6.785777,-5.267389,-2.538351,12.083117,23.365528,23.778149,-3.696191,-0.755321,5.948270,23.638948,18.819056,-1.837189,-24.617964,-118.788155,3968.000000,0.000000,0.000000,3.000000,59.000000,,,,0.000000,4.000000,4.000000,4.000000,4.000000,4.000000,4.000000,4.000000,4.000000,4.000000,4.000000,4.000000,4.000000,4.000000,4.000000,4.000000,4.000000,4.000000,4.000000,4.000000,4.000000,4.000000,4.000000,4.000000,4.000000,4.000000,4.000000,4.000000,4.000000,4.000000,4.000000,4.000000,4.000000,100.000000,,,,,,,,,,,,,,,,,,,,,,,,,,,,,,,,,,
1626187391.141365,114.000000,0.000000,13.534770,7.849632,-76.805145,1.394860,12.576458,13.862873,6.590740,19.232115,12.435068,5.673399,11.739341,18.863520,12.082721,11.175714,23.691750,8.385007,10.960168,9.308126,10.365145,2.422493,3.099572,19.755650,28.977547,23.754370,5.016736,3.856203,9.528476,29.250694,24.947929,-0.810737,-24.593346,-118.157059,4096.000000,0.000000,0.000000,3.000000,59.000000,,,,0.000000,4.000000,4.000000,4.000000,4.000000,4.000000,4.000000,4.000000,4.000000,4.000000,4.000000,4.000000,4.000000,4.000000,4.000000,4.000000,4.000000,4.000000,4.000000,4.000000,4.000000,4.000000,4.000000,4.000000,4.000000,4.000000,4.000000,4.000000,4.000000,4.000000,4.000000,4.000000,4.000000,100.000000,,,,,,,,,,,,,,,,,,,,,,,,,,,,,,,,,,
1626187391.149279,115.000000,0.000000,26.328928,20.137167,-74.166801,3.955003,21.273111,22.558241,14.268764,25.872883,17.033403,7.716957,16.850677,24.480040,19.755253,15.775309,36.988056,13.499699,15.559978,8.786510,15.990165,8.567763,2.584164,21.785126,31.510107,24.242924,8.597874,7.950809,10.543563,37.930676,30.558367,4.825459,-18.933369,-126.748131,4096.000000,0.000000,0.000000,3.000000,59.000000,,,,0.000000,4.000000,4.000000,4.000000,4.000000,4.000000,4.000000,4.000000,4.000000,4.000000,4.000000,4.000000,4.000000,4.000000,4.000000,4.000000,4.000000,4.000000,4.000000,4.000000,4.000000,4.000000,4.000000,4.000000,4.000000,4.000000,4.000000,4.000000,4.000000,4.000000,4.000000,4.000000,4.000000,100.000000,,,,,,,,,,,,,,,,,,,,,,,,,,,,,,,,,,
1626187391.157092,116.000000,0.000000,19.642599,20.117029,-72.555717,2.414125,17.153378,17.924913,14.766804,24.310085,18.040985,8.733855,10.686135,20.357098,15.637036,7.050302,34.389530,8.875430,15.544417,7.753109,9.826482,0.362272,-1.004574,13.054110,25.843212,21.144835,-1.144571,6.918242,7.459173,28.158897,26.941654,4.820633,-17.377512,-124.572151,4096.000000,0.000000,0.000000,3.000000,59.000000,,,,0.000000,4.000000,4.000000,4.000000,4.000000,4.000000,4.000000,4.000000,4.000000,4.000000,4.000000,4.000000,4.000000,4.000000,4.000000,4.000000,4.000000,4.000000,4.000000,4.000000,4.000000,4.000000,4.000000,4.000000,4.000000,4.000000,4.000000,4.000000,4.000000,4.000000,4.000000,4.000000,4.000000,100.000000,,,,,,,,,,,,,,,,,,,,,,,,,,,,,,,,,,
1626187391.165006,117.000000,0.000000,9.889110,5.239990,-72.995468,0.362480,10.476224,12.271604,8.092036,15.064238,15.973713,4.626659,6.064680,17.775204,14.596784,7.555560,28.207449,6.817324,15.016565,8.769971,8.279733,-2.199629,-1.003569,13.041055,24.792753,16.512920,-5.754195,4.862093,6.939406,22.495354,25.377789,0.717351,-22.483212,-113.689117,4096.000000,0.000000,0.000000,3.000000,59.000000,,,,0.000000,4.000000,4.000000,4.000000,4.000000,4.000000,4.000000,4.000000,4.000000,4.000000,4.000000,4.000000,4.000000,4.000000,4.000000,4.000000,4.000000,4.000000,4.000000,4.000000,4.000000,4.000000,4.000000,4.000000,4.000000,4.000000,4.000000,4.000000,4.000000,4.000000,4.000000,4.000000,4.000000,100.000000,,,,,,,,,,,,,,,,,,,,,,,,,,,,,,,,,,
1626187391.172820,118.000000,0.000000,17.051529,7.283980,-70.360931,3.948272,17.125748,15.845486,9.108560,16.586096,16.470047,7.183571,10.669385,24.929735,19.705263,13.183389,28.179241,12.958199,23.198471,11.835047,18.005299,7.536417,0.534358,19.688015,28.354115,13.934869,2.448482,8.443385,10.006313,30.669783,22.790873,1.228941,-19.899189,-111.013893,4096.000000,0.000000,0.000000,3.000000,59.000000,,,,0.000000,4.000000,4.000000,4.000000,4.000000,4.000000,4.000000,4.000000,4.000000,4.000000,4.000000,4.000000,4.000000,4.000000,4.000000,4.000000,4.000000,4.000000,4.000000,4.000000,4.000000,4.000000,4.000000,4.000000,4.000000,4.000000,4.000000,4.000000,4.000000,4.000000,4.000000,4.000000,4.000000,100.000000,,,,,,,,,,,,,,,,,,,,,,,,,,,,,,,,,,
1626187391.180733,119.000000,0.000000,18.571400,13.424389,-65.679802,6.505862,22.744007,15.317332,11.148682,22.717203,17.478191,12.299465,12.707946,25.929420,16.611713,10.608666,28.151062,12.945240,24.199888,10.286289,17.474985,5.991958,-3.052330,14.545249,25.251915,7.260933,8.593726,13.045712,7.947076,27.052958,19.181929,3.276943,-16.805445,-108.853645,4096.000000,0.000000,0.000000,3.000000,59.000000,,,,0.000000,4.000000,4.000000,4.000000,4.000000,4.000000,4.000000,4.000000,4.000000,4.000000,4.000000,4.000000,4.000000,4.000000,4.000000,4.000000,4.000000,4.000000,4.000000,4.000000,4.000000,4.000000,4.000000,4.000000,4.000000,4.000000,4.000000,4.000000,4.000000,4.000000,4.000000,4.000000,4.000000,100.000000,,,,,,,,,,,,,,,,,,,,,,,,,,,,,,,,,,
1626187391.188547,120.000000,0.000000,5.745136,0.603272,-71.249504,1.376279,14.524340,7.617400,3.452918,17.571409,13.874560,7.676396,6.035238,14.632722,9.422793,7.524212,30.172142,7.296911,8.294150,4.128310,8.748281,-3.235573,-11.758509,4.284550,12.931278,-1.455558,-0.124099,7.397281,-0.770102,12.681290,15.064285,-1.849411,-24.985561,-114.892487,3968.000000,0.000000,0.000000,3.000000,59.000000,,,,0.000000,4.000000,4.000000,4.000000,4.000000,4.000000,4.000000,4.000000,4.000000,4.000000,4.000000,4.000000,4.000000,4.000000,4.000000,4.000000,4.000000,4.000000,4.000000,4.000000,4.000000,4.000000,4.000000,4.000000,4.000000,4.000000,4.000000,4.000000,4.000000,4.000000,4.000000,4.000000,4.000000,100.000000,,,,,,,,,,,,,,,,,,,,,,,,,,,,,,,,,,
1626187391.196461,121.000000,0.000000,1.128622,-6.057331,-78.862877,-3.748174,2.214431,2.486706,-3.210535,7.819991,9.249916,2.545643,1.418434,11.031936,8.901063,9.053611,34.752739,11.388075,4.187395,6.173413,9.251840,-0.158491,-13.283673,4.792573,11.381424,-0.941795,-8.833205,-0.807040,-0.769332,14.205532,8.389221,-9.532177,-29.059038,-130.659134,3968.000000,0.000000,0.000000,3.000000,59.000000,,,,0.000000,4.000000,4.000000,4.000000,4.000000,4.000000,4.000000,4.000000,4.000000,4.000000,4.000000,4.000000,4.000000,4.000000,4.000000,4.000000,4.000000,4.000000,4.000000,4.000000,4.000000,4.000000,4.000000,4.000000,4.000000,4.000000,4.000000,4.000000,4.000000,4.000000,4.000000,4.000000,4.000000,100.000000,,,,,,,,,,,,,,,,,,,,,,,,,,,,,,,,,,
1626187391.204274,122.000000,0.000000,10.861340,4.194880,-74.173241,-4.256734,2.724524,2.484219,0.378829,6.787556,10.777590,3.055405,5.515477,17.680904,12.478315,9.044558,34.717987,17.012072,15.453977,10.265701,13.853357,3.427821,-6.098082,11.960089,25.202351,8.280685,-3.188988,3.804537,6.916053,26.486712,12.479293,-4.399568,-22.882286,-123.356163,4096.000000,0.000000,0.000000,3.000000,59.000000,,,,0.000000,4.000000,4.000000,4.000000,4.000000,4.000000,4.000000,4.000000,4.000000,4.000000,4.000000,4.000000,4.000000,4.000000,4.000000,4.000000,4.000000,4.000000,4.000000,4.000000,4.000000,4.000000,4.000000,4.000000,4.000000,4.000000,4.000000,4.000000,4.000000,4.000000,4.000000,4.000000,4.000000,100.000000,,,,,,,,,,,,,,,,,,,,,,,,,,,,,,,,,,
1626187391.212188,123.000000,0.000000,19.047401,11.875300,-67.439072,-3.227862,12.967954,7.604812,6.526143,13.953075,14.352966,3.564657,9.096115,20.224762,13.490453,4.937051,29.047884,12.384291,16.975445,5.132358,11.790273,-3.235606,-4.042753,13.997359,31.324841,13.907789,5.523432,8.923809,9.982983,29.021763,25.274506,3.801755,-19.785559,-104.277428,3968.000000,0.000000,0.000000,3.000000,59.000000,,,,0.000000,4.000000,4.000000,4.000000,4.000000,4.000000,4.000000,4.000000,4.000000,4.000000,4.000000,4.000000,4.000000,4.000000,4.000000,4.000000,4.000000,4.000000,4.000000,4.000000,4.000000,4.000000,4.000000,4.000000,4.000000,4.000000,4.000000,4.000000,4.000000,4.000000,4.000000,4.000000,4.000000,100.000000,,,,,,,,,,,,,,,,,,,,,,,,,,,,,,,,,,
1626187391.220002,124.000000,0.000000,18.516047,11.863425,-70.445473,-2.200018,12.954986,12.207976,7.544232,17.525276,15.875536,1.511862,4.988557,20.204536,11.940039,3.395191,20.821913,5.711906,11.323086,-0.508159,7.680021,-6.818525,-7.624865,8.860285,25.145823,10.820035,2.956370,5.841039,7.923769,27.455818,25.249231,3.285646,-19.765772,-111.857765,4096.000000,0.000000,0.000000,3.000000,59.000000,,,,0.000000,4.000000,4.000000,4.000000,4.000000,4.000000,4.000000,4.000000,4.000000,4.000000,4.000000,4.000000,4.000000,4.000000,4.000000,4.000000,4.000000,4.000000,4.000000,4.000000,4.000000,4.000000,4.000000,4.000000,4.000000,4.000000,4.000000,4.000000,4.000000,4.000000,4.000000,4.000000,4.000000,100.000000,,,,,,,,,,,,,,,,,,,,,,,,,,,,,,,,,,
1626187391.227915,125.000000,0.000000,12.862145,7.240793,-74.985802,-2.197819,7.306646,8.097306,7.536688,13.921597,14.835045,0.998042,3.446646,19.159718,12.952714,8.002565,20.801090,7.755425,11.311762,3.078503,8.696957,-3.737860,-7.104932,9.363732,25.120678,5.173831,0.391875,4.298275,6.891230,27.428362,17.539368,-2.865332,-20.258314,-117.381287,4096.000000,0.000000,0.000000,3.000000,59.000000,,,,0.000000,4.000000,4.000000,4.000000,4.000000,4.000000,4.000000,4.000000,4.000000,4.000000,4.000000,4.000000,4.000000,4.000000,4.000000,4.000000,4.000000,4.000000,4.000000,4.000000,4.000000,4.000000,4.000000,4.000000,4.000000,4.000000,4.000000,4.000000,4.000000,4.000000,4.000000,4.000000,4.000000,100.000000,,,,,,,,,,,,,,,,,,,,,,,,,,,,,,,,,,
1626187391.235729,126.000000,0.000000,10.287745,4.159706,-75.935425,-3.220236,11.397800,5.015363,9.066074,12.883060,11.746364,4.070890,9.590892,17.091326,17.550531,13.117640,32.051060,14.919977,12.325066,9.735425,12.786721,-1.684891,-2.487058,15.502061,27.144787,6.705580,4.489945,6.855515,5.859724,23.302471,14.960289,-7.473236,-21.774979,-105.480827,4096.000000,0.000000,0.000000,3.000000,59.000000,,,,0.000000,4.000000,4.000000,4.000000,4.000000,4.000000,4.000000,4.000000,4.000000,4.000000,4.000000,4.000000,4.000000,4.000000,4.000000,4.000000,4.000000,4.000000,4.000000,4.000000,4.000000,4.000000,4.000000,4.000000,4.000000,4.000000,4.000000,4.000000,4.000000,4.000000,4.000000,4.000000,4.000000,100.000000,,,,,,,,,,,,,,,,,,,,,,,,,,,,,,,,,,
1626187391.243642,127.000000,0.000000,9.252842,0.569392,-77.908722,-3.729323,11.386403,7.059578,7.007778,16.456331,12.759233,9.702204,12.655147,16.049620,15.996058,12.592214,33.043625,16.954288,9.751203,12.799536,15.335473,-0.658591,-2.484571,12.412712,19.945335,9.260413,6.534686,7.360967,1.755402,21.742247,10.334559,-7.978071,-22.777821,-116.133812,4096.000000,0.000000,0.000000,3.000000,59.000000,,,,0.000000,4.000000,4.000000,4.000000,4.000000,4.000000,4.000000,4.000000,4.000000,4.000000,4.000000,4.000000,4.000000,4.000000,4.000000,4.000000,4.000000,4.000000,4.000000,4.000000,4.000000,4.000000,4.000000,4.000000,4.000000,4.000000,4.000000,4.000000,4.000000,4.000000,4.000000,4.000000,4.000000,100.000000,,,,,,,,,,,,,,,,,,,,,,,,,,,,,,,,,,
1626187391.251456,0.000000,0.000000,4.120512,-5.066562,-78.855431,-2.700979,5.739632,5.003288,0.853077,15.415259,17.357243,10.717117,8.031722,12.959723,8.807754,12.067314,27.375195,13.863487,8.204528,12.786736,13.783215,-0.145625,-6.068240,7.789530,17.363852,4.128076,7.040459,8.378222,-1.320199,25.818966,6.225763,-4.896246,-23.779657,-131.899216,0.000000,0.000000,198.000000,3.000000,59.000000,,,,0.000000,4.000000,4.000000,4.000000,4.000000,4.000000,4.000000,4.000000,4.000000,4.000000,4.000000,4.000000,4.000000,4.000000,4.000000,4.000000,4.000000,4.000000,4.000000,4.000000,4.000000,4.000000,4.000000,4.000000,4.000000,4.000000,4.000000,4.000000,4.000000,4.000000,4.000000,4.000000,4.000000,100.000000,,,,,,,,,,,,,,,,,,,,,,,,,,,,,,,,,,
1626187391.259370,1.000000,0.000000,0.530237,-4.036880,-74.165802,-0.136739,8.295430,2.436746,0.339917,14.375229,17.339886,7.120246,5.974460,9.872918,6.749715,14.104478,30.933973,12.825008,7.684016,12.773950,15.306355,0.879136,-2.988326,11.367895,21.444948,3.099332,9.594956,10.419074,4.828813,24.256224,8.781076,-1.817504,-22.731262,-119.471931,0.000000,0.000000,194.000000,3.000000,59.000000,,,,0.000000,4.000000,4.000000,4.000000,4.000000,4.000000,4.000000,4.000000,4.000000,4.000000,4.000000,4.000000,4.000000,4.000000,4.000000,4.000000,4.000000,4.000000,4.000000,4.000000,4.000000,4.000000,4.000000,4.000000,4.000000,4.000000,4.000000,4.000000,4.000000,4.000000,4.000000,4.000000,4.000000,100.000000,,,,,,,,,,,,,,,,,,,,,,,,,,,,,,,,,,
1626187391.267183,2.000000,0.000000,0.529707,1.090234,-68.456253,1.912628,10.336366,4.995848,1.364192,17.434700,15.273315,7.113126,5.456178,11.399968,8.279888,8.967296,29.878424,12.299876,5.627101,12.248868,16.827971,2.927488,-0.423799,8.794989,18.349657,5.145463,0.876131,7.334809,6.360908,17.059660,7.235372,-0.791071,-21.171608,-110.130920,0.000000,0.000000,186.000000,3.000000,59.000000,,,,0.000000,4.000000,4.000000,4.000000,4.000000,4.000000,4.000000,4.000000,4.000000,4.000000,4.000000,4.000000,4.000000,4.000000,4.000000,4.000000,4.000000,4.000000,4.000000,4.000000,4.000000,4.000000,4.000000,4.000000,4.000000,4.000000,4.000000,4.000000,4.000000,4.000000,4.000000,4.000000,4.000000,100.000000,,,,,,,,,,,,,,,,,,,,,,,,,,,,,,,,,,
1626187391.275097,3.000000,0.000000,-3.056976,-3.009318,-70.437027,-0.138515,8.276799,5.503160,-1.711018,17.417265,14.745734,8.130629,-0.184663,11.388568,4.685455,0.249098,19.602392,5.627576,2.035320,8.138157,10.151143,-3.223132,-13.231068,-1.459960,9.622077,-2.544297,-13.981668,1.179782,-6.453146,13.456447,0.568137,-7.962588,-26.785822,-116.680794,0.000000,0.000000,204.000000,3.000000,59.000000,,,,0.000000,4.000000,4.000000,4.000000,4.000000,4.000000,4.000000,4.000000,4.000000,4.000000,4.000000,4.000000,4.000000,4.000000,4.000000,4.000000,4.000000,4.000000,4.000000,4.000000,4.000000,4.000000,4.000000,4.000000,4.000000,4.000000,4.000000,4.000000,4.000000,4.000000,4.000000,4.000000,4.000000,100.000000,,,,,,,,,,,,,,,,,,,,,,,,,,,,,,,,,,
1626187391.282910,4.000000,0.000000,-3.053920,-3.006309,-72.928131,-0.650684,13.391599,4.473042,0.852231,17.399847,9.095604,6.585575,-3.258325,9.840257,4.680769,-0.263459,20.607405,4.085025,3.057900,5.056173,2.968684,-12.953755,-23.976297,-1.970808,8.587840,-8.177137,-11.406148,-1.382936,-12.594385,11.393759,2.104492,-12.053086,-31.882113,-118.101036,0.000000,0.000000,201.000000,3.000000,59.000000,,,,0.000000,4.000000,4.000000,4.000000,4.000000,4.000000,4.000000,4.000000,4.000000,4.000000,4.000000,4.000000,4.000000,4.000000,4.000000,4.000000,4.000000,4.000000,4.000000,4.000000,4.000000,4.000000,4.000000,4.000000,4.000000,4.000000,4.000000,4.000000,4.000000,4.000000,4.000000,4.000000,4.000000,100.000000,,,,,,,,,,,,,,,,,,,,,,,,,,,,,,,,,,
1626187391.290824,5.000000,0.000000,9.244519,9.804390,-69.269051,4.985351,17.476669,10.103953,9.560610,22.505526,7.037277,8.628220,4.941857,18.027340,12.360703,3.835266,27.759106,12.790172,9.714843,8.124963,7.576485,-7.817724,-18.316936,4.691163,20.362329,-0.484345,0.388335,-0.869246,-2.847944,15.480827,10.299311,0.766659,-26.214846,-117.982933,0.000000,0.000000,208.000000,3.000000,59.000000,,,,0.000000,4.000000,4.000000,4.000000,4.000000,4.000000,4.000000,4.000000,4.000000,4.000000,4.000000,4.000000,4.000000,4.000000,4.000000,4.000000,4.000000,4.000000,4.000000,4.000000,4.000000,4.000000,4.000000,4.000000,4.000000,4.000000,4.000000,4.000000,4.000000,4.000000,4.000000,4.000000,4.000000,100.000000,,,,,,,,,,,,,,,,,,,,,,,,,,,,,,,,,,
1626187391.298737,6.000000,0.000000,22.042967,15.942278,-65.101318,7.029596,16.946884,17.778465,13.137203,24.532249,15.227163,11.181129,10.059992,28.767773,17.471420,4.856046,25.169807,15.851227,15.852819,9.653761,10.642755,-0.637599,-15.737082,8.272625,32.125042,5.663832,1.924870,1.693162,2.790288,26.736115,16.949011,11.524354,-20.553246,-113.254181,0.000000,0.000000,197.000000,3.000000,59.000000,,,,0.000000,4.000000,4.000000,4.000000,4.000000,4.000000,4.000000,4.000000,4.000000,4.000000,4.000000,4.000000,4.000000,4.000000,4.000000,4.000000,4.000000,4.000000,4.000000,4.000000,4.000000,4.000000,4.000000,4.000000,4.000000,4.000000,4.000000,4.000000,4.000000,4.000000,4.000000,4.000000,4.000000,100.000000,,,,,,,,,,,,,,,,,,,,,,,,,,,,,,,,,,
1626187391.306551,7.000000,0.000000,26.119385,14.901720,-65.036217,2.411798,19.491476,23.908379,13.124065,23.995411,16.236551,9.120718,8.000701,30.788237,18.478563,7.412729,22.583099,12.249222,17.886198,7.082569,4.484419,-7.809269,-18.795191,11.850507,34.654457,6.682783,3.459868,4.765315,7.910575,33.369381,25.128984,8.438983,-20.020386,-100.845543,0.000000,0.000000,211.000000,3.000000,59.000000,,,,0.000000,4.000000,4.000000,4.000000,4.000000,4.000000,4.000000,4.000000,4.000000,4.000000,4.000000,4.000000,4.000000,4.000000,4.000000,4.000000,4.000000,4.000000,4.000000,4.000000,4.000000,4.000000,4.000000,4.000000,4.000000,4.000000,4.000000,4.000000,4.000000,4.000000,4.000000,4.000000,4.000000,100.000000,,,,,,,,,,,,,,,,,,,,,,,,,,,,,,,,,,
1626187391.314464,8.000000,0.000000,33.265575,20.522203,-63.434258,4.970924,24.082754,30.032162,19.770941,30.631414,13.658776,11.160828,13.628085,36.905140,25.632393,14.065316,24.609747,19.409281,19.917542,10.149332,10.627627,-7.289152,-9.554857,19.010963,41.279800,16.922255,12.677947,8.346704,20.198050,38.459087,33.300777,14.065928,-14.364980,-101.257004,0.000000,0.000000,200.000000,3.000000,59.000000,,,,0.000000,4.000000,4.000000,4.000000,4.000000,4.000000,4.000000,4.000000,4.000000,4.000000,4.000000,4.000000,4.000000,4.000000,4.000000,4.000000,4.000000,4.000000,4.000000,4.000000,4.000000,4.000000,4.000000,4.000000,4.000000,4.000000,4.000000,4.000000,4.000000,4.000000,4.000000,4.000000,4.000000,100.000000,,,,,,,,,,,,,,,,,,,,,,,,,,,,,,,,,,
1626187391.322278,9.000000,0.000000,44.503078,29.723219,-55.173901,16.749031,34.304825,37.686745,30.509632,39.310013,21.329733,20.371206,23.348303,50.188236,35.852913,19.174328,28.171291,32.709873,28.094547,20.897644,29.060076,7.575060,7.360852,29.750414,55.583138,30.225332,14.714499,14.486049,25.300928,48.666782,39.927479,29.933401,-8.202923,-100.643440,0.000000,0.000000,199.000000,3.000000,59.000000,,,,0.000000,4.000000,4.000000,4.000000,4.000000,4.000000,4.000000,4.000000,4.000000,4.000000,4.000000,4.000000,4.000000,4.000000,4.000000,4.000000,4.000000,4.000000,4.000000,4.000000,4.000000,4.000000,4.000000,4.000000,4.000000,4.000000,4.000000,4.000000,4.000000,4.000000,4.000000,4.000000,4.000000,100.000000,,,,,,,,,,,,,,,,,,,,,,,,,,,,,,,,,,
1626187391.330192,10.000000,0.000000,47.532421,35.328880,-46.921803,19.806128,42.979752,44.309059,36.114506,41.319935,26.943789,22.400064,21.788033,50.138046,38.378601,19.667461,32.753891,33.189468,36.263378,27.536747,31.592554,14.227486,12.476568,35.356049,60.138325,31.732029,11.113631,19.594641,22.201780,53.228886,44.498322,32.465008,-7.682412,-84.661255,0.000000,0.000000,201.000000,3.000000,59.000000,,,,0.000000,4.000000,4.000000,4.000000,4.000000,4.000000,4.000000,4.000000,4.000000,4.000000,4.000000,4.000000,4.000000,4.000000,4.000000,4.000000,4.000000,4.000000,4.000000,4.000000,4.000000,4.000000,4.000000,4.000000,4.000000,4.000000,4.000000,4.000000,4.000000,4.000000,4.000000,4.000000,4.000000,100.000000,,,,,,,,,,,,,,,,,,,,,,,,,,,,,,,,,,
1626187391.338005,11.000000,0.000000,43.898735,34.268936,-50.461037,11.077090,33.202927,43.240135,28.393778,35.130924,23.330690,16.229973,17.155474,40.354061,33.729454,17.598562,31.184212,23.422434,32.128651,22.386133,21.827116,8.065565,6.828707,25.586847,50.856647,24.015682,17.250210,14.451968,21.154963,47.027962,43.429207,24.747927,-10.748576,-88.675056,0.000000,0.000000,196.000000,3.000000,59.000000,,,,0.000000,4.000000,4.000000,4.000000,4.000000,4.000000,4.000000,4.000000,4.000000,4.000000,4.000000,4.000000,4.000000,4.000000,4.000000,4.000000,4.000000,4.000000,4.000000,4.000000,4.000000,4.000000,4.000000,4.000000,4.000000,4.000000,4.000000,4.000000,4.000000,4.000000,4.000000,4.000000,4.000000,100.000000,,,,,,,,,,,,,,,,,,,,,,,,,,,,,,,,,,
1626187391.345919,12.000000,0.000000,38.731758,28.086975,-58.607498,4.918321,25.485107,36.024586,18.119230,29.460407,21.258129,14.164512,17.138319,38.776787,30.109570,15.019425,23.468412,18.275934,23.899599,15.191440,19.243750,4.471346,1.698801,17.364336,44.658100,19.893206,22.356037,5.728286,12.424578,40.320934,37.750393,17.550871,-18.422443,-111.127922,0.000000,0.000000,197.000000,3.000000,59.000000,,,,0.000000,4.000000,4.000000,4.000000,4.000000,4.000000,4.000000,4.000000,4.000000,4.000000,4.000000,4.000000,4.000000,4.000000,4.000000,4.000000,4.000000,4.000000,4.000000,4.000000,4.000000,4.000000,4.000000,4.000000,4.000000,4.000000,4.000000,4.000000,4.000000,4.000000,4.000000,4.000000,4.000000,100.000000,,,,,,,,,,,,,,,,,,,,,,,,,,,,,,,,,,
1626187391.353733,13.000000,0.000000,34.594566,25.497351,-59.061199,6.962634,32.119621,33.427025,21.174957,31.992485,21.749178,17.736502,16.096565,37.201084,28.030230,15.004406,24.981867,17.745350,25.924931,14.151632,18.712198,6.003798,-1.376744,20.420818,41.027287,18.336390,9.013680,3.673327,-0.395539,36.694462,34.638798,10.873320,-26.088636,-112.041405,0.000000,0.000000,197.000000,3.000000,59.000000,,,,0.000000,4.000000,4.000000,4.000000,4.000000,4.000000,4.000000,4.000000,4.000000,4.000000,4.000000,4.000000,4.000000,4.000000,4.000000,4.000000,4.000000,4.000000,4.000000,4.000000,4.000000,4.000000,4.000000,4.000000,4.000000,4.000000,4.000000,4.000000,4.000000,4.000000,4.000000,4.000000,4.000000,100.000000,,,,,,,,,,,,,,,,,,,,,,,,,,,,,,,,,,
1626187391.361646,14.000000,0.000000,29.949202,23.422623,-60.026752,10.029517,30.550579,30.832058,22.178396,36.058952,24.288967,18.231073,14.543546,27.942347,23.903736,17.038633,29.055347,16.190681,22.312853,12.600558,12.545794,3.436255,-7.523059,13.228089,31.252413,9.096514,-5.852256,3.157346,-0.907451,31.022381,29.481081,6.763985,-30.673317,-105.269363,0.000000,0.000000,206.000000,3.000000,59.000000,,,,0.000000,4.000000,4.000000,4.000000,4.000000,4.000000,4.000000,4.000000,4.000000,4.000000,4.000000,4.000000,4.000000,4.000000,4.000000,4.000000,4.000000,4.000000,4.000000,4.000000,4.000000,4.000000,4.000000,4.000000,4.000000,4.000000,4.000000,4.000000,4.000000,4.000000,4.000000,4.000000,4.000000,100.000000,,,,,,,,,,,,,,,,,,,,,,,,,,,,,,,,,,
1626187391.369460,15.000000,0.000000,21.722330,16.226891,-65.089806,8.994872,22.835413,26.190456,11.910065,32.949051,26.826218,18.725149,14.529002,22.791327,19.781372,17.021595,25.952446,14.637568,6.921309,9.001803,8.434787,-4.764104,-13.150921,0.919477,21.487314,-1.158736,-2.772558,1.617265,0.630379,20.745205,21.766983,4.707990,-33.716488,-109.774864,0.000000,0.000000,185.000000,3.000000,59.000000,,,,0.000000,4.000000,4.000000,4.000000,4.000000,4.000000,4.000000,4.000000,4.000000,4.000000,4.000000,4.000000,4.000000,4.000000,4.000000,4.000000,4.000000,4.000000,4.000000,4.000000,4.000000,4.000000,4.000000,4.000000,4.000000,4.000000,4.000000,4.000000,4.000000,4.000000,4.000000,4.000000,4.000000,100.000000,,,,,,,,,,,,,,,,,,,,,,,,,,,,,,,,,,
1626187391.377374,16.000000,0.000000,15.552915,15.186049,-60.413944,9.498185,24.861809,25.651958,9.848924,30.866869,22.700930,20.755655,13.489858,23.280844,17.200052,15.467649,24.901878,12.573700,3.840541,10.017417,6.889429,-4.247032,-11.088539,2.967788,17.367365,-0.132962,1.840984,3.152571,-4.493328,19.187536,23.282141,4.703282,-31.121235,-108.128166,0.000000,0.000000,204.000000,3.000000,59.000000,,,,0.000000,4.000000,4.000000,4.000000,4.000000,4.000000,4.000000,4.000000,4.000000,4.000000,4.000000,4.000000,4.000000,4.000000,4.000000,4.000000,4.000000,4.000000,4.000000,4.000000,4.000000,4.000000,4.000000,4.000000,4.000000,4.000000,4.000000,4.000000,4.000000,4.000000,4.000000,4.000000,4.000000,100.000000,,,,,,,,,,,,,,,,,,,,,,,,,,,,,,,,,,
1626187391.385187,17.000000,0.000000,14.512746,18.244709,-56.255070,9.488687,23.300024,23.577076,13.937536,32.885235,19.092075,16.636438,10.914829,20.183716,12.059774,10.329104,24.876976,8.462665,8.447470,8.470476,4.321002,-1.168939,-12.614374,3.477128,15.300767,1.916401,-3.796242,2.124803,-5.513450,24.803734,24.795780,6.747809,-29.040882,-103.409271,0.000000,0.000000,197.000000,3.000000,59.000000,,,,0.000000,4.000000,4.000000,4.000000,4.000000,4.000000,4.000000,4.000000,4.000000,4.000000,4.000000,4.000000,4.000000,4.000000,4.000000,4.000000,4.000000,4.000000,4.000000,4.000000,4.000000,4.000000,4.000000,4.000000,4.000000,4.000000,4.000000,4.000000,4.000000,4.000000,4.000000,4.000000,4.000000,100.000000,,,,,,,,,,,,,,,,,,,,,,,,,,,,,,,,,,
1626187391.393101,18.000000,0.000000,9.887465,14.128003,-63.371120,4.356121,16.616724,17.405806,8.800522,26.704655,21.634521,7.398263,6.805453,14.528148,9.486176,3.658776,18.704407,5.380356,1.266715,-0.759532,0.218219,-11.926231,-22.847914,-4.210964,12.723928,0.377562,-6.866292,-3.512706,-4.483321,19.655853,15.037139,3.667215,-34.647224,-108.941246,0.000000,0.000000,203.000000,3.000000,59.000000,,,,0.000000,4.000000,4.000000,4.000000,4.000000,4.000000,4.000000,4.000000,4.000000,4.000000,4.000000,4.000000,4.000000,4.000000,4.000000,4.000000,4.000000,4.000000,4.000000,4.000000,4.000000,4.000000,4.000000,4.000000,4.000000,4.000000,4.000000,4.000000,4.000000,4.000000,4.000000,4.000000,4.000000,100.000000,,,,,,,,,,,,,,,,,,,,,,,,,,,,,,,,,,
1626187391.400914,19.000000,0.000000,5.779115,11.040029,-63.307751,2.302534,19.673952,15.339170,6.230183,17.968719,20.075964,8.415480,6.798647,14.001312,12.038229,5.192040,17.661087,8.448822,0.753140,-2.295696,-0.294307,-16.012766,-24.361988,-0.620599,15.785050,5.500261,-3.273271,-4.021502,-2.941915,15.025428,10.923640,0.589702,-32.563347,-112.418457,0.000000,0.000000,206.000000,3.000000,59.000000,,,,0.000000,4.000000,4.000000,4.000000,4.000000,4.000000,4.000000,4.000000,4.000000,4.000000,4.000000,4.000000,4.000000,4.000000,4.000000,4.000000,4.000000,4.000000,4.000000,4.000000,4.000000,4.000000,4.000000,4.000000,4.000000,4.000000,4.000000,4.000000,4.000000,4.000000,4.000000,4.000000,4.000000,100.000000,,,,,,,,,,,,,,,,,,,,,,,,,,,,,,,,,,
1626187391.408828,20.000000,0.000000,10.896413,14.102835,-51.973671,6.911001,22.728125,17.373062,13.908568,20.512289,21.592810,19.677834,14.988772,21.671926,16.636959,13.896079,23.278811,14.075758,13.047771,8.465061,5.341372,-1.139831,-14.091473,9.113868,24.478497,12.667068,-1.220767,1.105597,5.257950,26.281172,17.060410,7.761420,-21.260015,-108.207581,0.000000,0.000000,197.000000,3.000000,59.000000,,,,0.000000,4.000000,4.000000,4.000000,4.000000,4.000000,4.000000,4.000000,4.000000,4.000000,4.000000,4.000000,4.000000,4.000000,4.000000,4.000000,4.000000,4.000000,4.000000,4.000000,4.000000,4.000000,4.000000,4.000000,4.000000,4.000000,4.000000,4.000000,4.000000,4.000000,4.000000,4.000000,4.000000,100.000000,,,,,,,,,,,,,,,,,,,,,,,,,,,,,,,,,,
1626187391.416642,21.000000,0.000000,14.471670,16.137962,-50.897083,7.416398,19.631550,18.380304,16.968506,27.664085,26.181986,20.170464,19.584553,27.797947,20.718784,14.906798,21.718609,15.086297,15.596262,12.555058,9.946799,2.959770,-10.491227,8.592445,31.114017,15.728248,-1.219547,4.690645,9.351153,30.865660,18.580271,10.827505,-23.287987,-100.927063,0.000000,0.000000,208.000000,3.000000,59.000000,,,,0.000000,4.000000,4.000000,4.000000,4.000000,4.000000,4.000000,4.000000,4.000000,4.000000,4.000000,4.000000,4.000000,4.000000,4.000000,4.000000,4.000000,4.000000,4.000000,4.000000,4.000000,4.000000,4.000000,4.000000,4.000000,4.000000,4.000000,4.000000,4.000000,4.000000,4.000000,4.000000,4.000000,100.000000,,,,,,,,,,,,,,,,,,,,,,,,,,,,,,,,,,
1626187391.424555,22.000000,0.000000,14.457199,17.146441,-55.456955,4.847443,19.611919,22.460384,13.877691,27.124113,21.032728,12.465677,13.929584,27.770149,22.234989,12.330353,21.184582,14.558904,14.556050,9.468657,9.424545,-5.240112,-11.505351,8.583854,33.644444,16.737135,0.318596,1.612109,4.731033,24.687101,17.024769,3.644370,-29.924698,-96.215370,0.000000,0.000000,211.000000,3.000000,59.000000,,,,0.000000,4.000000,4.000000,4.000000,4.000000,4.000000,4.000000,4.000000,4.000000,4.000000,4.000000,4.000000,4.000000,4.000000,4.000000,4.000000,4.000000,4.000000,4.000000,4.000000,4.000000,4.000000,4.000000,4.000000,4.000000,4.000000,4.000000,4.000000,4.000000,4.000000,4.000000,4.000000,4.000000,100.000000,,,,,,,,,,,,,,,,,,,,,,,,,,,,,,,,,,
1626187391.432369,23.000000,0.000000,20.590433,17.641602,-50.278423,7.404134,21.129230,26.024078,15.400737,25.560066,18.450157,16.551674,15.452577,29.791609,21.700445,16.416485,27.823399,21.204344,21.201494,16.119188,12.488967,2.449743,-3.296923,16.772192,32.586182,16.720398,9.027508,-2.487965,4.213995,30.297800,18.544666,1.591494,-25.796312,-98.680687,0.000000,0.000000,211.000000,3.000000,59.000000,,,,0.000000,4.000000,4.000000,4.000000,4.000000,4.000000,4.000000,4.000000,4.000000,4.000000,4.000000,4.000000,4.000000,4.000000,4.000000,4.000000,4.000000,4.000000,4.000000,4.000000,4.000000,4.000000,4.000000,4.000000,4.000000,4.000000,4.000000,4.000000,4.000000,4.000000,4.000000,4.000000,4.000000,100.000000,,,,,,,,,,,,,,,,,,,,,,,,,,,,,,,,,,
1626187391.440283,24.000000,0.000000,24.668304,16.599344,-50.228142,7.396729,20.083487,24.973438,19.483797,27.583736,24.067091,24.219738,23.121740,31.811049,23.215670,19.473913,27.795574,25.281601,23.741831,22.250761,21.185709,11.668832,5.415605,19.316959,30.504366,16.703678,14.653865,0.076061,3.697473,34.365963,17.501507,5.176057,-25.258207,-98.582008,0.000000,0.000000,193.000000,3.000000,59.000000,,,,0.000000,4.000000,4.000000,4.000000,4.000000,4.000000,4.000000,4.000000,4.000000,4.000000,4.000000,4.000000,4.000000,4.000000,4.000000,4.000000,4.000000,4.000000,4.000000,4.000000,4.000000,4.000000,4.000000,4.000000,4.000000,4.000000,4.000000,4.000000,4.000000,4.000000,4.000000,4.000000,4.000000,100.000000,,,,,,,,,,,,,,,,,,,,,,,,,,,,,,,,,,
1626187391.448096,25.000000,0.000000,20.545176,16.582745,-64.522530,0.217025,17.501863,25.460773,18.952005,24.482307,19.432255,20.097055,18.487848,28.705391,22.167837,16.892900,24.693932,22.694782,19.619629,18.130049,21.164522,6.021779,1.824035,13.662257,29.449245,17.711590,6.442288,-0.948630,-3.478532,27.159288,15.434774,3.121650,-28.819103,-95.921890,0.000000,0.000000,199.000000,3.000000,59.000000,,,,0.000000,4.000000,4.000000,4.000000,4.000000,4.000000,4.000000,4.000000,4.000000,4.000000,4.000000,4.000000,4.000000,4.000000,4.000000,4.000000,4.000000,4.000000,4.000000,4.000000,4.000000,4.000000,4.000000,4.000000,4.000000,4.000000,4.000000,4.000000,4.000000,4.000000,4.000000,4.000000,4.000000,100.000000,,,,,,,,,,,,,,,,,,,,,,,,,,,,,,,,,,
1626187391.456010,26.000000,0.000000,20.524630,14.516932,-72.654930,-4.906269,12.361285,26.972235,17.396132,18.822441,10.703591,17.003113,12.321669,27.139763,19.071823,13.802162,25.693853,20.622856,17.038469,16.574995,15.507974,4.478834,-2.788558,13.648595,28.907488,13.595416,-2.785692,-9.144605,-2.962746,24.570591,9.783955,-1.492241,-30.839516,-105.047508,0.000000,0.000000,195.000000,3.000000,59.000000,,,,0.000000,4.000000,4.000000,4.000000,4.000000,4.000000,4.000000,4.000000,4.000000,4.000000,4.000000,4.000000,4.000000,4.000000,4.000000,4.000000,4.000000,4.000000,4.000000,4.000000,4.000000,4.000000,4.000000,4.000000,4.000000,4.000000,4.000000,4.000000,4.000000,4.000000,4.000000,4.000000,4.000000,100.000000,,,,,,,,,,,,,,,,,,,,,,,,,,,,,,,,,,
1626187391.463824,27.000000,0.000000,23.065643,11.428569,-68.996124,-2.852132,10.299693,23.871416,18.403351,19.828234,14.279042,18.010725,16.920116,29.161854,19.052752,13.276052,23.106621,19.065310,17.533739,17.070728,16.004774,7.035893,-1.248846,17.221100,29.390888,10.507975,-0.221368,-9.647768,0.626370,27.107559,6.700325,-4.564595,-34.907139,-118.774765,0.000000,0.000000,195.000000,3.000000,59.000000,,,,0.000000,4.000000,4.000000,4.000000,4.000000,4.000000,4.000000,4.000000,4.000000,4.000000,4.000000,4.000000,4.000000,4.000000,4.000000,4.000000,4.000000,4.000000,4.000000,4.000000,4.000000,4.000000,4.000000,4.000000,4.000000,4.000000,4.000000,4.000000,4.000000,4.000000,4.000000,4.000000,4.000000,100.000000,,,,,,,,,,,,,,,,,,,,,,,,,,,,,,,,,,
1626187391.471737,28.000000,0.000000,24.579502,17.052525,-66.877892,0.736874,14.900163,24.359854,20.946486,23.394558,18.875532,15.943483,19.464735,32.718845,23.644468,15.824315,22.058899,19.558552,23.663898,12.955196,15.476461,-0.143450,-4.321444,16.691572,32.435345,13.059005,0.803469,-1.953504,-0.911179,27.592760,14.890548,-2.510799,-37.433769,-115.582146,0.000000,0.000000,198.000000,3.000000,59.000000,,,,0.000000,4.000000,4.000000,4.000000,4.000000,4.000000,4.000000,4.000000,4.000000,4.000000,4.000000,4.000000,4.000000,4.000000,4.000000,4.000000,4.000000,4.000000,4.000000,4.000000,4.000000,4.000000,4.000000,4.000000,4.000000,4.000000,4.000000,4.000000,4.000000,4.000000,4.000000,4.000000,4.000000,100.000000,1.000000,100.000000,4.000000,4.000000,4.000000,4.000000,4.000000,4.000000,4.000000,4.000000,4.000000,4.000000,4.000000,4.000000,4.000000,4.000000,4.000000,4.000000,4.000000,4.000000,4.000000,4.000000,4.000000,4.000000,4.000000,4.000000,4.000000,4.000000,4.000000,4.000000,4.000000,4.000000,4.000000,4.000000
1626187391.479651,29.000000,0.000000,28.653383,25.744703,-65.786400,2.273061,19.496031,28.433954,22.974770,26.445011,17.832041,19.001387,18.420654,38.833820,29.768517,16.320799,27.159918,24.662071,26.714081,13.966856,10.850215,-3.217153,-12.001738,15.137957,33.427525,10.484407,-0.221950,-0.414628,-0.397960,31.663628,23.584888,3.639404,-33.297874,-103.171181,0.000000,0.000000,199.000000,3.000000,59.000000,,,,0.000000,4.000000,4.000000,4.000000,4.000000,4.000000,4.000000,4.000000,4.000000,4.000000,4.000000,4.000000,4.000000,4.000000,4.000000,4.000000,4.000000,4.000000,4.000000,4.000000,4.000000,4.000000,4.000000,4.000000,4.000000,4.000000,4.000000,4.000000,4.000000,4.000000,4.000000,4.000000,4.000000,100.000000,,,,,,,,,,,,,,,,,,,,,,,,,,,,,,,,,,
1626187391.487464,30.000000,0.000000,31.698576,22.645113,-65.208305,3.295403,21.525766,27.893213,26.537949,28.980104,20.888056,25.642385,20.451464,38.794987,29.738749,12.718324,28.669682,25.149715,22.076597,17.026735,10.327058,2.933756,-10.452813,13.073588,29.295635,6.887769,10.024426,-1.951136,3.700899,30.607349,21.512072,6.197303,-29.166113,-99.994164,0.000000,0.000000,207.000000,3.000000,59.000000,,,,0.000000,4.000000,4.000000,4.000000,4.000000,4.000000,4.000000,4.000000,4.000000,4.000000,4.000000,4.000000,4.000000,4.000000,4.000000,4.000000,4.000000,4.000000,4.000000,4.000000,4.000000,4.000000,4.000000,4.000000,4.000000,4.000000,4.000000,4.000000,4.000000,4.000000,4.000000,4.000000,4.000000,100.000000,,,,,,,,,,,,,,,,,,,,,,,,,,,,,,,,,,
1626187391.495378,31.000000,0.000000,26.543800,12.888621,-68.216949,4.316723,18.430395,21.717628,24.462179,25.364969,23.428705,22.030588,19.918705,28.510036,21.512085,10.656374,26.591780,19.489182,17.443750,10.862017,8.779807,2.930823,-4.806975,9.474360,23.630955,9.954727,12.575939,0.100046,0.111045,24.429050,15.855175,-2.005818,-29.136948,-106.554169,0.000000,0.000000,198.000000,3.000000,59.000000,,,,0.000000,4.000000,4.000000,4.000000,4.000000,4.000000,4.000000,4.000000,4.000000,4.000000,4.000000,4.000000,4.000000,4.000000,4.000000,4.000000,4.000000,4.000000,4.000000,4.000000,4.000000,4.000000,4.000000,4.000000,4.000000,4.000000,4.000000,4.000000,4.000000,4.000000,4.000000,4.000000,4.000000,100.000000,,,,,,,,,,,,,,,,,,,,,,,,,,,,,,,,,,
1626187391.503192,32.000000,0.000000,14.734179,4.678809,-69.685654,-0.810671,7.653502,14.011294,13.679256,15.605759,18.794508,13.811635,12.214171,18.747681,13.805959,9.108795,21.954420,12.809692,7.180153,0.092693,-0.962819,-4.756724,-10.949861,1.267963,15.922709,4.309388,-1.268944,-5.535439,-10.647528,20.306160,9.179320,-13.786889,-35.767811,-110.546074,4096.000000,0.000000,0.000000,3.000000,59.000000,,,,0.000000,4.000000,4.000000,4.000000,4.000000,4.000000,4.000000,4.000000,4.000000,4.000000,4.000000,4.000000,4.000000,4.000000,4.000000,4.000000,4.000000,4.000000,4.000000,4.000000,4.000000,4.000000,4.000000,4.000000,4.000000,4.000000,4.000000,4.000000,4.000000,4.000000,4.000000,4.000000,4.000000,100.000000,,,,,,,,,,,,,,,,,,,,,,,,,,,,,,,,,,
1626187391.511105,33.000000,0.000000,7.034830,-2.498177,-72.177505,-6.445245,1.498157,9.386515,7.517885,11.491692,15.701867,10.723977,6.054265,14.630471,7.644460,3.464302,13.223234,4.087652,-4.610104,-7.592015,-8.134164,-6.801198,-19.135834,-5.393305,10.783709,-5.941075,-8.952291,-12.189903,-16.784573,16.699699,-0.051398,-16.846949,-43.416656,-108.898605,4096.000000,0.000000,0.000000,3.000000,59.000000,,,,0.000000,4.000000,4.000000,4.000000,4.000000,4.000000,4.000000,4.000000,4.000000,4.000000,4.000000,4.000000,4.000000,4.000000,4.000000,4.000000,4.000000,4.000000,4.000000,4.000000,4.000000,4.000000,4.000000,4.000000,4.000000,4.000000,4.000000,4.000000,4.000000,4.000000,4.000000,4.000000,4.000000,100.000000,,,,,,,,,,,,,,,,,,,,,,,,,,,,,,,,,,
1626187391.518919,34.000000,0.000000,12.663180,-1.983371,-76.203789,-3.877261,5.082812,12.450974,12.121136,15.066354,19.784626,10.200946,7.072826,15.128148,7.124508,3.460837,14.746934,1.522026,1.029891,-5.535192,-0.441414,-1.159012,-13.993621,1.784396,15.896002,1.749481,-2.283338,-9.103868,-12.669327,15.658384,-0.563654,-10.170101,-39.274780,-113.912781,4096.000000,0.000000,0.000000,3.000000,59.000000,,,,0.000000,4.000000,4.000000,4.000000,4.000000,4.000000,4.000000,4.000000,4.000000,4.000000,4.000000,4.000000,4.000000,4.000000,4.000000,4.000000,4.000000,4.000000,4.000000,4.000000,4.000000,4.000000,4.000000,4.000000,4.000000,4.000000,4.000000,4.000000,4.000000,4.000000,4.000000,4.000000,4.000000,100.000000,,,,,,,,,,,,,,,,,,,,,,,,,,,,,,,,,,
1626187391.526832,35.000000,0.000000,19.822824,6.215535,-70.492203,-2.848768,8.151576,15.512369,14.158246,18.125134,20.789457,13.264590,10.651907,18.699175,16.851229,11.141992,27.027573,12.791273,10.762708,5.228805,10.317489,6.014455,-7.319628,11.516458,23.052414,9.432347,0.792791,-3.459379,-6.508965,19.741188,5.072294,-6.061470,-34.624737,-117.897331,4096.000000,0.000000,0.000000,3.000000,59.000000,,,,0.000000,4.000000,4.000000,4.000000,4.000000,4.000000,4.000000,4.000000,4.000000,4.000000,4.000000,4.000000,4.000000,4.000000,4.000000,4.000000,4.000000,4.000000,4.000000,4.000000,4.000000,4.000000,4.000000,4.000000,4.000000,4.000000,4.000000,4.000000,4.000000,4.000000,4.000000,4.000000,4.000000,100.000000,,,,,,,,,,,,,,,,,,,,,,,,,,,,,,,,,,
1626187391.534646,36.000000,0.000000,11.093771,5.697012,-62.737091,-5.919766,6.606501,11.398396,12.607164,17.594700,16.157900,15.812864,12.690486,20.217398,20.420532,13.180080,27.512852,17.389252,6.141175,9.322037,11.331787,4.471517,-10.386154,8.943403,20.980131,2.762915,-4.331079,-5.505150,-10.600918,16.647600,1.993376,-12.203100,-39.713188,-107.020973,4096.000000,0.000000,0.000000,3.000000,59.000000,,,,0.000000,4.000000,4.000000,4.000000,4.000000,4.000000,4.000000,4.000000,4.000000,4.000000,4.000000,4.000000,4.000000,4.000000,4.000000,4.000000,4.000000,4.000000,4.000000,4.000000,4.000000,4.000000,4.000000,4.000000,4.000000,4.000000,4.000000,4.000000,4.000000,4.000000,4.000000,4.000000,4.000000,100.000000,,,,,,,,,,,,,,,,,,,,,,,,,,,,,,,,,,
1626187391.542560,37.000000,0.000000,2.373446,-2.505608,-68.822044,-3.352308,5.062972,7.800843,13.106865,13.990952,16.654049,12.210897,14.214718,16.611027,11.690881,11.117670,21.337646,11.736478,2.036573,6.238869,8.758917,-1.168339,-15.498845,3.811383,14.299150,1.223229,-7.400594,-7.548876,-17.250317,9.458645,-3.644002,-17.313974,-42.747322,-102.815491,4096.000000,0.000000,0.000000,3.000000,59.000000,,,,0.000000,4.000000,4.000000,4.000000,4.000000,4.000000,4.000000,4.000000,4.000000,4.000000,4.000000,4.000000,4.000000,4.000000,4.000000,4.000000,4.000000,4.000000,4.000000,4.000000,4.000000,4.000000,4.000000,4.000000,4.000000,4.000000,4.000000,4.000000,4.000000,4.000000,4.000000,4.000000,4.000000,100.000000,,,,,,,,,,,,,,,,,,,,,,,,,,,,,,,,,,
1626187391.550373,38.000000,0.000000,8.006457,-2.503103,-73.876305,-3.348955,6.082524,9.842273,13.606066,12.952346,19.198933,11.686379,13.688196,14.032877,14.240728,11.106552,22.340925,16.335510,4.083767,8.281860,8.750157,1.906676,-15.483346,2.782956,13.260236,0.709698,-5.343962,-6.516712,-17.233067,8.936878,-2.615743,-15.247429,-42.704575,-112.958832,4096.000000,0.000000,0.000000,3.000000,59.000000,,,,0.000000,4.000000,4.000000,4.000000,4.000000,4.000000,4.000000,4.000000,4.000000,4.000000,4.000000,4.000000,4.000000,4.000000,4.000000,4.000000,4.000000,4.000000,4.000000,4.000000,4.000000,4.000000,4.000000,4.000000,4.000000,4.000000,4.000000,4.000000,4.000000,4.000000,4.000000,4.000000,4.000000,100.000000,,,,,,,,,,,,,,,,,,,,,,,,,,,,,,,,,,
1626187391.558287,39.000000,0.000000,9.535375,0.573247,-68.679352,-4.882529,9.150288,9.832431,12.055536,16.525547,18.667427,13.723924,12.649892,14.018845,19.861872,11.095446,24.367815,21.442251,2.542760,12.372041,8.741407,7.027846,-14.443248,2.780173,15.808514,-8.512550,-4.826311,-3.436349,-16.191217,8.927941,-2.100819,-13.695259,-43.686485,-108.235100,4096.000000,0.000000,0.000000,3.000000,59.000000,,,,0.000000,4.000000,4.000000,4.000000,4.000000,4.000000,4.000000,4.000000,4.000000,4.000000,4.000000,4.000000,4.000000,4.000000,4.000000,4.000000,4.000000,4.000000,4.000000,4.000000,4.000000,4.000000,4.000000,4.000000,4.000000,4.000000,4.000000,4.000000,4.000000,4.000000,4.000000,4.000000,4.000000,100.000000,,,,,,,,,,,,,,,,,,,,,,,,,,,,,,,,,,
1626187391.566101,40.000000,0.000000,3.890454,-0.964250,-65.536827,0.245430,9.141137,8.797983,11.531174,16.509022,19.161066,7.562508,12.124934,17.078672,13.694318,13.645888,27.929600,17.322348,3.052525,12.871976,9.244974,4.459280,-13.916496,3.802008,16.817322,-6.967114,-6.870715,0.153241,-14.125796,8.919013,-2.098718,-11.632333,-38.519722,-99.929939,4096.000000,0.000000,0.000000,3.000000,59.000000,,,,0.000000,4.000000,4.000000,4.000000,4.000000,4.000000,4.000000,4.000000,4.000000,4.000000,4.000000,4.000000,4.000000,4.000000,4.000000,4.000000,4.000000,4.000000,4.000000,4.000000,4.000000,4.000000,4.000000,4.000000,4.000000,4.000000,4.000000,4.000000,4.000000,4.000000,4.000000,4.000000,4.000000,100.000000,,,,,,,,,,,,,,,,,,,,,,,,,,,,,,,,,,
1626187391.574014,41.000000,0.000000,10.546564,3.647484,-64.958977,1.782108,8.619688,12.887647,10.495027,15.467897,21.191137,5.505714,10.063579,20.647747,15.729855,15.681474,33.024746,19.354256,10.221780,18.494490,12.309575,8.040975,-11.341042,6.872052,18.337427,3.798314,-2.765383,1.177703,-5.914747,13.008555,2.514149,-3.936085,-32.333508,-113.662323,4096.000000,0.000000,0.000000,3.000000,59.000000,,,,0.000000,4.000000,4.000000,4.000000,4.000000,4.000000,4.000000,4.000000,4.000000,4.000000,4.000000,4.000000,4.000000,4.000000,4.000000,4.000000,4.000000,4.000000,4.000000,4.000000,4.000000,4.000000,4.000000,4.000000,4.000000,4.000000,4.000000,4.000000,4.000000,4.000000,4.000000,4.000000,4.000000,100.000000,,,,,,,,,,,,,,,,,,,,,,,,,,,,,,,,,,
1626187391.581828,42.000000,0.000000,17.196018,9.279221,-64.381714,-2.830444,12.197223,14.411682,9.972224,20.063198,16.046869,10.623285,9.028900,20.114792,23.911047,13.104254,31.967108,23.433363,13.285404,22.062149,14.858804,16.229856,-6.206624,7.889796,22.929859,4.819131,2.872767,2.201141,-3.347294,14.532471,4.560866,-2.907534,-33.325790,-117.647118,4096.000000,0.000000,0.000000,3.000000,59.000000,,,,0.000000,4.000000,4.000000,4.000000,4.000000,4.000000,4.000000,4.000000,4.000000,4.000000,4.000000,4.000000,4.000000,4.000000,4.000000,4.000000,4.000000,4.000000,4.000000,4.000000,4.000000,4.000000,4.000000,4.000000,4.000000,4.000000,4.000000,4.000000,4.000000,4.000000,4.000000,4.000000,4.000000,100.000000,,,,,,,,,,,,,,,,,,,,,,,,,,,,,,,,,,
1626187391.589742,43.000000,0.000000,9.494205,3.634557,-64.829636,-2.827613,13.209641,11.323424,9.962252,17.481598,11.420053,10.100354,10.044486,15.996215,18.764059,13.603456,31.422832,20.848392,9.685966,15.892394,14.843946,13.139780,-4.151186,6.344983,22.394621,2.252774,1.332971,1.686632,-7.442408,14.005630,1.482459,-8.540010,-33.804771,-97.037163,4096.000000,0.000000,0.000000,3.000000,59.000000,,,,0.000000,4.000000,4.000000,4.000000,4.000000,4.000000,4.000000,4.000000,4.000000,4.000000,4.000000,4.000000,4.000000,4.000000,4.000000,4.000000,4.000000,4.000000,4.000000,4.000000,4.000000,4.000000,4.000000,4.000000,4.000000,4.000000,4.000000,4.000000,4.000000,4.000000,4.000000,4.000000,4.000000,100.000000,,,,,,,,,,,,,,,,,,,,,,,,,,,,,,,,,,
1626187391.597555,44.000000,0.000000,8.460096,0.557076,-62.203270,-1.800170,8.585662,13.361331,9.439981,9.779500,14.482478,8.553331,8.497519,17.517141,17.208372,17.176008,34.465256,22.364466,10.188587,16.388809,14.829102,12.102025,-4.147035,4.801715,21.347610,4.812059,-0.717592,-1.388901,-5.898043,18.090086,3.017900,-5.969932,-30.697123,-90.792435,4096.000000,0.000000,0.000000,3.000000,59.000000,,,,0.000000,4.000000,4.000000,4.000000,4.000000,4.000000,4.000000,4.000000,4.000000,4.000000,4.000000,4.000000,4.000000,4.000000,4.000000,4.000000,4.000000,4.000000,4.000000,4.000000,4.000000,4.000000,4.000000,4.000000,4.000000,4.000000,4.000000,4.000000,4.000000,4.000000,4.000000,4.000000,4.000000,100.000000,,,,,,,,,,,,,,,,,,,,,,,,,,,,,,,,,,
1626187391.605469,45.000000,0.000000,19.722404,7.728827,-58.042606,-2.310678,8.064769,18.471046,11.479773,15.405105,20.103380,10.081700,10.025945,24.671932,25.900394,18.183447,34.943100,26.440563,17.350706,23.544727,17.888119,21.311462,0.980189,10.944605,29.010880,9.930325,4.918510,-0.875204,-2.305991,22.170458,10.699497,-0.840885,-29.129501,-100.947800,4096.000000,0.000000,0.000000,3.000000,59.000000,,,,0.000000,4.000000,4.000000,4.000000,4.000000,4.000000,4.000000,4.000000,4.000000,4.000000,4.000000,4.000000,4.000000,4.000000,4.000000,4.000000,4.000000,4.000000,4.000000,4.000000,4.000000,4.000000,4.000000,4.000000,4.000000,4.000000,4.000000,4.000000,4.000000,4.000000,4.000000,4.000000,4.000000,100.000000,,,,,,,,,,,,,,,,,,,,,,,,,,,,,,,,,,
1626187391.613282,46.000000,0.000000,22.264221,6.696483,-59.521488,0.765479,11.130549,16.915653,17.103678,21.537392,22.644815,8.022388,15.651303,24.647261,23.825264,18.677570,33.883541,23.340277,18.357971,19.422722,20.431768,17.703997,0.979209,17.081352,33.592636,15.043470,9.012053,2.199517,-5.377531,21.635979,11.201105,-6.987737,-32.174217,-99.309929,4096.000000,0.000000,0.000000,3.000000,59.000000,,,,0.000000,4.000000,4.000000,4.000000,4.000000,4.000000,4.000000,4.000000,4.000000,4.000000,4.000000,4.000000,4.000000,4.000000,4.000000,4.000000,4.000000,4.000000,4.000000,4.000000,4.000000,4.000000,4.000000,4.000000,4.000000,4.000000,4.000000,4.000000,4.000000,4.000000,4.000000,4.000000,4.000000,100.000000,,,,,,,,,,,,,,,,,,,,,,,,,,,,,,,,,,
1626187391.621196,47.000000,0.000000,9.946572,-8.679444,-66.634270,-2.821440,4.971727,10.238737,12.475804,12.806624,16.474478,4.428212,11.024882,13.864152,13.042977,15.072740,28.214272,14.607706,7.068843,8.132529,12.214414,1.292446,-9.267924,5.793502,20.239044,7.856120,0.806118,-5.999605,-14.593692,13.417420,-2.130096,-17.739210,-42.900505,-99.210617,4096.000000,0.000000,0.000000,3.000000,59.000000,,,,0.000000,4.000000,4.000000,4.000000,4.000000,4.000000,4.000000,4.000000,4.000000,4.000000,4.000000,4.000000,4.000000,4.000000,4.000000,4.000000,4.000000,4.000000,4.000000,4.000000,4.000000,4.000000,4.000000,4.000000,4.000000,4.000000,4.000000,4.000000,4.000000,4.000000,4.000000,4.000000,4.000000,100.000000,,,,,,,,,,,,,,,,,,,,,,,,,,,,,,,,,,
1626187391.629010,48.000000,0.000000,-0.821835,-20.453842,-75.789177,-12.040157,-6.816322,0.494652,-3.418210,3.572279,4.674927,1.862245,-0.769219,4.116442,7.394549,5.323821,17.939903,5.371560,-3.696687,4.538243,-0.093185,-3.319616,-16.943272,-6.507676,6.898805,-7.520967,-9.953150,-21.362837,-24.825253,3.670157,-14.935658,-24.381472,-53.103760,-117.042175,3968.000000,0.000000,0.000000,3.000000,59.000000,,,,0.000000,4.000000,4.000000,4.000000,4.000000,4.000000,4.000000,4.000000,4.000000,4.000000,4.000000,4.000000,4.000000,4.000000,4.000000,4.000000,4.000000,4.000000,4.000000,4.000000,4.000000,4.000000,4.000000,4.000000,4.000000,4.000000,4.000000,4.000000,4.000000,4.000000,4.000000,4.000000,4.000000,100.000000,,,,,,,,,,,,,,,,,,,,,,,,,,,,,,,,,,
1626187391.636923,49.000000,0.000000,4.302063,-14.285696,-78.787231,-10.491194,-5.272583,0.494158,-1.877868,4.593322,5.182560,0.835768,0.256165,8.210787,9.948693,6.855420,21.508118,7.927727,1.430087,9.656782,6.054600,4.368320,-14.877098,1.695755,14.064214,-6.488831,-9.943196,-22.366089,-23.775812,6.740333,-8.260722,-21.795551,-53.562962,-128.708206,3968.000000,0.000000,0.000000,3.000000,59.000000,,,,0.000000,4.000000,4.000000,4.000000,4.000000,4.000000,4.000000,4.000000,4.000000,4.000000,4.000000,4.000000,4.000000,4.000000,4.000000,4.000000,4.000000,4.000000,4.000000,4.000000,4.000000,4.000000,4.000000,4.000000,4.000000,4.000000,4.000000,4.000000,4.000000,4.000000,4.000000,4.000000,4.000000,100.000000,,,,,,,,,,,,,,,,,,,,,,,,,,,,,,,,,,
1626187391.644737,50.000000,0.000000,23.253145,2.634744,-66.925369,1.302374,12.663460,20.473663,18.616318,15.347190,16.448147,9.544163,12.551294,24.084114,23.258745,21.193180,34.806610,22.264414,15.773273,19.893278,20.905468,11.536259,-7.689913,15.014059,30.443996,7.862273,-0.199407,-9.023723,-6.845881,22.615131,10.702923,-7.429141,-45.312477,-116.796425,4096.000000,0.000000,0.000000,3.000000,59.000000,,,,0.000000,4.000000,4.000000,4.000000,4.000000,4.000000,4.000000,4.000000,4.000000,4.000000,4.000000,4.000000,4.000000,4.000000,4.000000,4.000000,4.000000,4.000000,4.000000,4.000000,4.000000,4.000000,4.000000,4.000000,4.000000,4.000000,4.000000,4.000000,4.000000,4.000000,4.000000,4.000000,4.000000,100.000000,,,,,,,,,,,,,,,,,,,,,,,,,,,,,,,,,,
1626187391.652551,51.000000,0.000000,36.549892,14.415186,-54.563061,7.961071,22.896950,34.797806,26.282316,26.602612,20.530161,17.731541,20.735666,36.355415,34.506256,25.270449,35.284111,27.365227,25.491344,26.533386,24.470716,15.110876,0.002392,20.122122,39.122784,15.539026,7.997715,2.256070,2.382503,34.887901,19.913759,5.898289,-33.996395,-97.211937,4096.000000,0.000000,0.000000,3.000000,59.000000,,,,0.000000,4.000000,4.000000,4.000000,4.000000,4.000000,4.000000,4.000000,4.000000,4.000000,4.000000,4.000000,4.000000,4.000000,4.000000,4.000000,4.000000,4.000000,4.000000,4.000000,4.000000,4.000000,4.000000,4.000000,4.000000,4.000000,4.000000,4.000000,4.000000,4.000000,4.000000,4.000000,4.000000,100.000000,,,,,,,,,,,,,,,,,,,,,,,,,,,,,,,,,,
1626187391.660364,52.000000,0.000000,32.927189,13.888463,-55.020805,8.977726,17.750977,29.127623,21.645266,27.088318,20.509630,14.639964,19.178007,35.806751,31.910210,20.122101,31.150366,23.751707,25.465853,23.945314,20.860092,17.144997,2.563929,19.589693,38.571354,15.523487,7.477410,4.303045,-3.767572,34.340706,18.869230,7.941621,-26.790091,-89.942413,4096.000000,0.000000,0.000000,3.000000,59.000000,,,,0.000000,4.000000,4.000000,4.000000,4.000000,4.000000,4.000000,4.000000,4.000000,4.000000,4.000000,4.000000,4.000000,4.000000,4.000000,4.000000,4.000000,4.000000,4.000000,4.000000,4.000000,4.000000,4.000000,4.000000,4.000000,4.000000,4.000000,4.000000,4.000000,4.000000,4.000000,4.000000,4.000000,100.000000,,,,,,,,,,,,,,,,,,,,,,,,,,,,,,,,,,
1626187391.668078,53.000000,0.000000,24.697338,10.288421,-56.502708,11.017979,15.683994,23.463110,21.111311,24.499691,24.075274,13.600709,14.035752,28.086330,25.730608,17.028133,29.069984,21.166418,18.780388,18.285984,17.253078,15.078621,-2.049405,13.934718,31.872782,13.458734,1.834548,1.737203,-7.349958,27.646364,14.751899,3.322910,-28.812532,-92.926323,4096.000000,0.000000,0.000000,3.000000,59.000000,,,,0.000000,4.000000,4.000000,4.000000,4.000000,4.000000,4.000000,4.000000,4.000000,4.000000,4.000000,4.000000,4.000000,4.000000,4.000000,4.000000,4.000000,4.000000,4.000000,4.000000,4.000000,4.000000,4.000000,4.000000,4.000000,4.000000,4.000000,4.000000,4.000000,4.000000,4.000000,4.000000,4.000000,100.000000,,,,,,,,,,,,,,,,,,,,,,,,,,,,,,,,,,
1626187391.675992,54.000000,0.000000,20.574181,12.327363,-54.396973,14.080808,20.791388,23.951956,18.528662,27.549038,26.100430,18.710184,10.947870,21.398243,20.581800,10.863412,22.893221,12.436020,11.076992,12.120006,11.600441,7.378926,-6.658124,9.310014,24.668600,9.346813,2.857328,1.735466,-3.756454,26.081795,10.638685,-1.291182,-34.931412,-96.419548,3968.000000,0.000000,0.000000,3.000000,59.000000,,,,0.000000,4.000000,4.000000,4.000000,4.000000,4.000000,4.000000,4.000000,4.000000,4.000000,4.000000,4.000000,4.000000,4.000000,4.000000,4.000000,4.000000,4.000000,4.000000,4.000000,4.000000,4.000000,4.000000,4.000000,4.000000,4.000000,4.000000,4.000000,4.000000,4.000000,4.000000,4.000000,4.000000,100.000000,,,,,,,,,,,,,,,,,,,,,,,,,,,,,,,,,,
1626187391.683805,55.000000,0.000000,19.528990,15.388882,-52.805653,13.042111,22.307518,23.928003,16.460903,28.033796,27.098944,15.617628,9.399999,20.864538,15.438142,4.704856,20.821098,8.325123,10.553607,9.546348,12.101148,5.834624,-6.651466,12.374550,24.643932,8.825158,11.051394,3.270654,-0.166544,27.592636,14.214200,-0.777583,-32.334942,-95.298515,4096.000000,0.000000,0.000000,3.000000,59.000000,,,,0.000000,4.000000,4.000000,4.000000,4.000000,4.000000,4.000000,4.000000,4.000000,4.000000,4.000000,4.000000,4.000000,4.000000,4.000000,4.000000,4.000000,4.000000,4.000000,4.000000,4.000000,4.000000,4.000000,4.000000,4.000000,4.000000,4.000000,4.000000,4.000000,4.000000,4.000000,4.000000,4.000000,100.000000,,,,,,,,,,,,,,,,,,,,,,,,,,,,,,,,,,
1626187391.691719,56.000000,0.000000,22.070999,16.398108,-49.679001,8.418300,19.211365,25.953306,19.518288,23.907301,27.071846,10.991241,9.902906,22.892904,15.935011,5.724767,24.898739,12.415259,15.666131,11.586032,13.625970,12.488790,-2.034046,11.849868,28.717751,11.377872,13.601881,3.779691,3.932084,27.565042,19.835371,6.395502,-25.642607,-94.690903,4096.000000,0.000000,0.000000,3.000000,59.000000,,,,0.000000,4.000000,4.000000,4.000000,4.000000,4.000000,4.000000,4.000000,4.000000,4.000000,4.000000,4.000000,4.000000,4.000000,4.000000,4.000000,4.000000,4.000000,4.000000,4.000000,4.000000,4.000000,4.000000,4.000000,4.000000,4.000000,4.000000,4.000000,4.000000,4.000000,4.000000,4.000000,4.000000,100.000000,,,,,,,,,,,,,,,,,,,,,,,,,,,,,,,,,,
1626187391.699533,57.000000,0.000000,19.487391,11.258634,-53.727783,3.286804,12.019846,21.316584,10.789538,18.248009,22.946312,8.931020,6.306850,17.746933,13.357538,2.645196,18.726147,5.742844,13.088926,7.475984,4.390806,5.816301,-3.568935,6.202633,25.615185,11.366494,9.489818,0.702065,2.903536,27.025171,16.229382,6.901414,-30.227734,-98.182365,4096.000000,0.000000,0.000000,3.000000,59.000000,,,,0.000000,4.000000,4.000000,4.000000,4.000000,4.000000,4.000000,4.000000,4.000000,4.000000,4.000000,4.000000,4.000000,4.000000,4.000000,4.000000,4.000000,4.000000,4.000000,4.000000,4.000000,4.000000,4.000000,4.000000,4.000000,4.000000,4.000000,4.000000,4.000000,4.000000,4.000000,4.000000,4.000000,100.000000,,,,,,,,,,,,,,,,,,,,,,,,,,,,,,,,,,
1626187391.707446,58.000000,0.000000,7.684826,2.025836,-66.994057,0.209672,2.786288,7.975267,-2.541251,9.520530,18.824903,3.799012,-2.408688,10.556879,2.585719,-2.992834,11.022805,-1.435207,3.854299,-2.265338,-2.785893,-8.534131,-12.274596,4.147200,18.417263,8.281281,3.844944,-3.397099,-4.783983,25.461222,8.528537,-0.790102,-39.419044,-101.670341,3968.000000,0.000000,0.000000,3.000000,59.000000,,,,0.000000,4.000000,4.000000,4.000000,4.000000,4.000000,4.000000,4.000000,4.000000,4.000000,4.000000,4.000000,4.000000,4.000000,4.000000,4.000000,4.000000,4.000000,4.000000,4.000000,4.000000,4.000000,4.000000,4.000000,4.000000,4.000000,4.000000,4.000000,4.000000,4.000000,4.000000,4.000000,4.000000,100.000000,,,,,,,,,,,,,,,,,,,,,,,,,,,,,,,,,,
1626187391.715260,59.000000,0.000000,5.627910,1.511503,-65.902443,1.746385,5.345040,8.991907,2.072060,9.511009,21.879925,5.844443,0.155260,12.595553,5.144671,3.157851,19.208706,9.324690,5.899675,4.396927,6.950739,1.208250,-9.188476,7.729207,19.423460,8.273000,0.254945,-2.369086,-4.266891,25.435760,10.569239,-1.301620,-35.793472,-99.519440,4096.000000,0.000000,0.000000,3.000000,59.000000,,,,0.000000,4.000000,4.000000,4.000000,4.000000,4.000000,4.000000,4.000000,4.000000,4.000000,4.000000,4.000000,4.000000,4.000000,4.000000,4.000000,4.000000,4.000000,4.000000,4.000000,4.000000,4.000000,4.000000,4.000000,4.000000,4.000000,4.000000,4.000000,4.000000,4.000000,4.000000,4.000000,4.000000,100.000000,,,,,,,,,,,,,,,,,,,,,,,,,,,,,,,,,,
1626187391.723173,60.000000,0.000000,14.331513,8.169991,-54.053467,2.769254,11.999695,16.155222,9.754603,15.136883,24.931892,11.986291,12.962796,18.218342,19.484142,12.376232,28.923344,14.950750,14.603006,19.761761,18.726866,20.162426,3.116097,12.844555,23.502499,11.338573,6.402382,3.780975,0.348145,28.996479,18.243286,5.359682,-28.073063,-93.784538,4096.000000,0.000000,0.000000,3.000000,59.000000,,,,0.000000,4.000000,4.000000,4.000000,4.000000,4.000000,4.000000,4.000000,4.000000,4.000000,4.000000,4.000000,4.000000,4.000000,4.000000,4.000000,4.000000,4.000000,4.000000,4.000000,4.000000,4.000000,4.000000,4.000000,4.000000,4.000000,4.000000,4.000000,4.000000,4.000000,4.000000,4.000000,4.000000,100.000000,,,,,,,,,,,,,,,,,,,,,,,,,,,,,,,,,,
1626187391.730987,61.000000,0.000000,11.243336,6.112590,-59.634800,-1.844285,5.840003,12.552914,6.158695,9.998669,20.808498,5.314305,10.388295,13.589355,16.390812,8.777702,23.259035,7.763492,9.977634,16.668154,14.609677,13.482264,1.063751,11.294786,19.892843,10.302619,14.592903,3.777194,-3.238357,26.918251,16.688118,4.329707,-30.606527,-92.153831,4096.000000,0.000000,0.000000,3.000000,59.000000,,,,0.000000,4.000000,4.000000,4.000000,4.000000,4.000000,4.000000,4.000000,4.000000,4.000000,4.000000,4.000000,4.000000,4.000000,4.000000,4.000000,4.000000,4.000000,4.000000,4.000000,4.000000,4.000000,4.000000,4.000000,4.000000,4.000000,4.000000,4.000000,4.000000,4.000000,4.000000,4.000000,4.000000,100.000000,,,,,,,,,,,,,,,,,,,,,,,,,,,,,,,,,,
1626187391.738901,62.000000,0.000000,3.547477,0.471093,-69.309013,-4.403979,-2.875068,8.441899,2.054074,2.816363,16.176920,-2.375625,0.644061,6.403458,5.615960,1.084309,16.575777,4.169574,1.258426,5.380716,5.373529,2.710320,-8.671160,4.111185,12.700643,3.632316,12.016771,-2.886583,-4.259734,20.231333,7.449892,-2.334623,-35.186691,-94.623215,4096.000000,0.000000,0.000000,3.000000,59.000000,,,,0.000000,4.000000,4.000000,4.000000,4.000000,4.000000,4.000000,4.000000,4.000000,4.000000,4.000000,4.000000,4.000000,4.000000,4.000000,4.000000,4.000000,4.000000,4.000000,4.000000,4.000000,4.000000,4.000000,4.000000,4.000000,4.000000,4.000000,4.000000,4.000000,4.000000,4.000000,4.000000,4.000000,100.000000,,,,,,,,,,,,,,,,,,,,,,,,,,,,,,,,,,
1626187391.746714,63.000000,0.000000,5.593160,-0.553993,-62.067394,0.211195,1.226269,9.458073,-0.509518,5.887393,18.209974,0.188289,2.180340,4.347823,7.659575,0.570917,19.120739,0.066943,1.769475,5.375335,2.806617,6.293763,-8.150181,2.570150,10.638711,0.554838,6.881678,-4.420619,0.867603,20.211102,5.905519,-3.356904,-32.589966,-98.114746,3968.000000,0.000000,0.000000,3.000000,59.000000,,,,0.000000,4.000000,4.000000,4.000000,4.000000,4.000000,4.000000,4.000000,4.000000,4.000000,4.000000,4.000000,4.000000,4.000000,4.000000,4.000000,4.000000,4.000000,4.000000,4.000000,4.000000,4.000000,4.000000,4.000000,4.000000,4.000000,4.000000,4.000000,4.000000,4.000000,4.000000,4.000000,4.000000,100.000000,,,,,,,,,,,,,,,,,,,,,,,,,,,,,,,,,,
1626187391.754628,64.000000,0.000000,1.489105,-4.139593,-56.369942,1.235599,6.348119,6.887076,-5.119778,8.443044,18.704073,-0.836514,-0.895687,1.781937,6.114992,0.058038,18.077003,-3.006970,0.743090,6.906883,3.316118,4.238239,-7.117415,4.616811,11.652687,1.578899,6.362488,-3.903891,-1.182495,21.727814,7.436537,-2.841239,-30.508144,-103.139702,0.000000,0.000000,198.000000,3.000000,59.000000,,,,0.000000,4.000000,4.000000,4.000000,4.000000,4.000000,4.000000,4.000000,4.000000,4.000000,4.000000,4.000000,4.000000,4.000000,4.000000,4.000000,4.000000,4.000000,4.000000,4.000000,4.000000,4.000000,4.000000,4.000000,4.000000,4.000000,4.000000,4.000000,4.000000,4.000000,4.000000,4.000000,4.000000,100.000000,,,,,,,,,,,,,,,,,,,,,,,,,,,,,,,,,,
1626187391.762442,65.000000,0.000000,-3.635461,-7.209300,-60.924339,-2.351791,1.218694,4.830958,-7.163889,4.336139,14.586906,-6.471063,-8.579406,-1.805999,-3.624969,-5.065097,10.886618,-0.442425,-1.306884,1.776899,0.238956,-2.938307,-11.208759,1.538348,8.567188,2.601935,2.769972,-4.924603,-3.742851,19.144548,5.379869,-4.887629,-30.477636,-104.061180,0.000000,0.000000,194.000000,3.000000,59.000000,,,,0.000000,4.000000,4.000000,4.000000,4.000000,4.000000,4.000000,4.000000,4.000000,4.000000,4.000000,4.000000,4.000000,4.000000,4.000000,4.000000,4.000000,4.000000,4.000000,4.000000,4.000000,4.000000,4.000000,4.000000,4.000000,4.000000,4.000000,4.000000,4.000000,4.000000,4.000000,4.000000,4.000000,100.000000,,,,,,,,,,,,,,,,,,,,,,,,,,,,,,,,,,
1626187391.770355,66.000000,0.000000,1.491252,-3.103629,-63.937263,-4.910977,-4.930217,4.826127,-8.181340,1.257957,14.060012,-6.464592,-3.447750,-0.779577,-0.547498,-6.084647,11.900347,1.094941,2.280577,2.287430,1.775640,-3.447677,-11.197551,1.536809,7.534006,5.673179,-1.331260,-4.919678,-0.665262,19.637711,5.886797,-2.833510,-31.471775,-95.247887,0.000000,0.000000,186.000000,3.000000,59.000000,,,,0.000000,4.000000,4.000000,4.000000,4.000000,4.000000,4.000000,4.000000,4.000000,4.000000,4.000000,4.000000,4.000000,4.000000,4.000000,4.000000,4.000000,4.000000,4.000000,4.000000,4.000000,4.000000,4.000000,4.000000,4.000000,4.000000,4.000000,4.000000,4.000000,4.000000,4.000000,4.000000,4.000000,100.000000,,,,,,,,,,,,,,,,,,,,,,,,,,,,,,,,,,
1626187391.778169,67.000000,0.000000,0.465145,-5.149756,-65.410248,-7.467605,-4.412979,1.235147,-10.734697,-0.280224,14.558260,-5.945819,-0.370456,2.295048,6.113049,-4.029332,17.523830,3.143077,3.815219,6.383604,6.384634,-3.956537,-10.161737,4.096811,9.063396,7.716737,0.719302,-3.890143,-3.226136,21.154997,5.880910,-2.318369,-34.001842,-87.980331,0.000000,0.000000,204.000000,3.000000,59.000000,,,,0.000000,4.000000,4.000000,4.000000,4.000000,4.000000,4.000000,4.000000,4.000000,4.000000,4.000000,4.000000,4.000000,4.000000,4.000000,4.000000,4.000000,4.000000,4.000000,4.000000,4.000000,4.000000,4.000000,4.000000,4.000000,4.000000,4.000000,4.000000,4.000000,4.000000,4.000000,4.000000,4.000000,100.000000,,,,,,,,,,,,,,,,,,,,,,,,,,,,,,,,,,
1626187391.786083,68.000000,0.000000,-8.244551,-10.267683,-67.906380,-8.484753,-2.359335,0.721604,-9.187039,0.232364,13.006779,-7.989104,-6.005470,2.292753,2.008475,-8.123764,13.920154,3.652241,-1.823980,3.303374,4.329018,-1.391042,-12.713114,3.068099,7.517408,3.098251,5.329352,-5.935483,-8.858294,17.035379,-0.784970,-5.389897,-34.480148,-95.064659,0.000000,0.000000,201.000000,3.000000,59.000000,,,,0.000000,4.000000,4.000000,4.000000,4.000000,4.000000,4.000000,4.000000,4.000000,4.000000,4.000000,4.000000,4.000000,4.000000,4.000000,4.000000,4.000000,4.000000,4.000000,4.000000,4.000000,4.000000,4.000000,4.000000,4.000000,4.000000,4.000000,4.000000,4.000000,4.000000,4.000000,4.000000,4.000000,100.000000,,,,,,,,,,,,,,,,,,,,,,,,,,,,,,,,,,
1626187391.793896,69.000000,0.000000,-6.699383,-4.109723,-66.301544,-6.427037,-3.381591,4.307037,-8.153237,3.818285,14.530695,-5.419577,-4.462542,0.241230,0.469543,-12.214102,11.344695,-0.449872,-4.383695,-1.310698,0.738535,4.245734,-14.749632,1.528108,5.972968,-2.027924,9.422484,-5.929548,-7.312513,15.993730,-3.345724,-3.847584,-32.396435,-104.191132,0.000000,0.000000,208.000000,3.000000,59.000000,,,,0.000000,4.000000,4.000000,4.000000,4.000000,4.000000,4.000000,4.000000,4.000000,4.000000,4.000000,4.000000,4.000000,4.000000,4.000000,4.000000,4.000000,4.000000,4.000000,4.000000,4.000000,4.000000,4.000000,4.000000,4.000000,4.000000,4.000000,4.000000,4.000000,4.000000,4.000000,4.000000,4.000000,100.000000,,,,,,,,,,,,,,,,,,,,,,,,,,,,,,,,,,
1626187391.801810,70.000000,0.000000,-0.544991,-1.031767,-64.186012,-5.395995,-3.378209,6.351961,-8.145084,5.351390,17.077702,0.221228,0.152690,2.290219,4.567535,-6.054195,19.017965,1.599808,0.743766,1.252151,4.836258,2.704565,-14.222574,3.063503,10.065456,1.560257,10.437677,0.736381,-2.694431,20.588505,2.293006,-1.282198,-31.339424,-103.574638,0.000000,0.000000,197.000000,3.000000,59.000000,,,,0.000000,4.000000,4.000000,4.000000,4.000000,4.000000,4.000000,4.000000,4.000000,4.000000,4.000000,4.000000,4.000000,4.000000,4.000000,4.000000,4.000000,4.000000,4.000000,4.000000,4.000000,4.000000,4.000000,4.000000,4.000000,4.000000,4.000000,4.000000,4.000000,4.000000,4.000000,4.000000,4.000000,100.000000,,,,,,,,,,,,,,,,,,,,,,,,,,,,,,,,,,
1626187391.809624,71.000000,0.000000,0.992477,-8.203043,-61.047981,-3.853676,-1.325600,7.370224,-0.452324,3.296808,16.548317,1.757930,3.226384,9.460237,7.636814,0.611859,24.122025,9.282824,5.866099,4.837052,7.392960,0.652630,-12.671429,3.060439,12.616930,5.657159,9.914932,5.346414,-1.667121,22.617147,6.901483,-3.330147,-28.746546,-97.835678,0.000000,0.000000,211.000000,3.000000,59.000000,,,,0.000000,4.000000,4.000000,4.000000,4.000000,4.000000,4.000000,4.000000,4.000000,4.000000,4.000000,4.000000,4.000000,4.000000,4.000000,4.000000,4.000000,4.000000,4.000000,4.000000,4.000000,4.000000,4.000000,4.000000,4.000000,4.000000,4.000000,4.000000,4.000000,4.000000,4.000000,4.000000,4.000000,100.000000,,,,,,,,,,,,,,,,,,,,,,,,,,,,,,,,,,
1626187391.817337,72.000000,0.000000,-0.033131,-5.120994,-57.400780,-2.825207,3.286494,8.899776,4.671206,3.805819,17.044077,-2.854598,7.321619,10.987700,11.727638,-0.413368,20.511749,6.712003,1.761771,3.807600,4.311721,4.238131,-10.609527,5.106609,13.628928,4.114579,10.417325,0.217991,-1.153146,23.619144,7.919197,-0.765278,-27.180876,-91.077843,0.000000,0.000000,200.000000,3.000000,59.000000,,,,0.000000,4.000000,4.000000,4.000000,4.000000,4.000000,4.000000,4.000000,4.000000,4.000000,4.000000,4.000000,4.000000,4.000000,4.000000,4.000000,4.000000,4.000000,4.000000,4.000000,4.000000,4.000000,4.000000,4.000000,4.000000,4.000000,4.000000,4.000000,4.000000,4.000000,4.000000,4.000000,4.000000,100.000000,,,,,,,,,,,,,,,,,,,,,,,,,,,,,,,,,,
1626187391.825151,73.000000,0.000000,-0.033098,5.642589,-56.318764,-4.359304,5.844747,9.915492,0.055765,9.949705,19.588572,-3.876358,5.777374,6.365942,10.178988,0.099353,19.978930,4.143752,-3.875375,3.803792,4.307409,6.795432,-10.086610,6.638426,13.102991,3.085849,6.308446,-7.466843,-0.639686,22.570911,6.886662,1.797026,-28.178310,-87.400612,0.000000,0.000000,199.000000,3.000000,59.000000,,,,0.000000,4.000000,4.000000,4.000000,4.000000,4.000000,4.000000,4.000000,4.000000,4.000000,4.000000,4.000000,4.000000,4.000000,4.000000,4.000000,4.000000,4.000000,4.000000,4.000000,4.000000,4.000000,4.000000,4.000000,4.000000,4.000000,4.000000,4.000000,4.000000,4.000000,4.000000,4.000000,4.000000,100.000000,,,,,,,,,,,,,,,,,,,,,,,,,,,,,,,,,,
1626187391.833065,74.000000,0.000000,3.553089,3.587715,-55.237831,-3.330330,6.863517,12.467115,-0.968906,14.550525,21.105906,2.787518,5.259289,8.408808,7.094963,3.173100,25.594336,8.750378,1.763885,8.410758,5.327717,7.300944,-11.101138,4.582557,9.503735,3.082763,0.154445,-11.045529,-3.712892,17.425262,8.416698,-1.790925,-29.687056,-90.899361,0.000000,0.000000,201.000000,3.000000,59.000000,,,,0.000000,4.000000,4.000000,4.000000,4.000000,4.000000,4.000000,4.000000,4.000000,4.000000,4.000000,4.000000,4.000000,4.000000,4.000000,4.000000,4.000000,4.000000,4.000000,4.000000,4.000000,4.000000,4.000000,4.000000,4.000000,4.000000,4.000000,4.000000,4.000000,4.000000,4.000000,4.000000,4.000000,100.000000,,,,,,,,,,,,,,,,,,,,,,,,,,,,,,,,,,
1626187391.840878,75.000000,0.000000,1.500305,-0.514334,-56.207207,0.259154,8.393577,11.430033,0.056678,9.412897,14.937107,3.297038,5.766337,6.351168,9.649406,-1.440843,26.081049,7.717012,2.274429,7.377732,0.711620,1.145951,-16.213114,-0.545103,7.445000,-3.580320,-1.382632,-13.083714,-6.783025,13.309376,9.432898,-2.813750,-34.780445,-91.320770,0.000000,0.000000,196.000000,3.000000,59.000000,,,,0.000000,4.000000,4.000000,4.000000,4.000000,4.000000,4.000000,4.000000,4.000000,4.000000,4.000000,4.000000,4.000000,4.000000,4.000000,4.000000,4.000000,4.000000,4.000000,4.000000,4.000000,4.000000,4.000000,4.000000,4.000000,4.000000,4.000000,4.000000,4.000000,4.000000,4.000000,4.000000,4.000000,100.000000,,,,,,,,,,,,,,,,,,,,,,,,,,,,,,,,,,
1626187391.848592,76.000000,0.000000,-7.210426,-1.538435,-61.274078,-3.327259,5.823645,2.197064,-7.627994,2.743484,5.188324,-3.878567,0.125186,-4.925952,5.541295,-7.074787,16.833429,-0.487628,-8.486307,-0.314261,-5.949091,-11.150580,-24.393824,-4.643019,5.388324,-12.285971,-2.918173,-15.632170,-8.825473,11.759144,2.763464,-5.372474,-42.430283,-95.327911,0.000000,0.000000,197.000000,3.000000,59.000000,,,,0.000000,4.000000,4.000000,4.000000,4.000000,4.000000,4.000000,4.000000,4.000000,4.000000,4.000000,4.000000,4.000000,4.000000,4.000000,4.000000,4.000000,4.000000,4.000000,4.000000,4.000000,4.000000,4.000000,4.000000,4.000000,4.000000,4.000000,4.000000,4.000000,4.000000,4.000000,4.000000,4.000000,100.000000,,,,,,,,,,,,,,,,,,,,,,,,,,,,,,,,,,
1626187391.856406,77.000000,0.000000,-5.666293,-6.659974,-65.311264,-7.934700,2.743975,1.170252,-8.644981,4.789971,4.670828,-2.337765,0.637369,-2.359488,-0.099631,-1.432327,12.205826,-1.511756,-6.940898,-0.313947,-7.480065,-11.139429,-22.832506,-2.076838,1.796782,-12.785993,-10.087563,-18.178076,-14.964340,10.722769,-1.337761,-13.564025,-45.974003,-111.626427,0.000000,0.000000,198.000000,3.000000,59.000000,,,,0.000000,4.000000,4.000000,4.000000,4.000000,4.000000,4.000000,4.000000,4.000000,4.000000,4.000000,4.000000,4.000000,4.000000,4.000000,4.000000,4.000000,4.000000,4.000000,4.000000,4.000000,4.000000,4.000000,4.000000,4.000000,4.000000,4.000000,4.000000,4.000000,4.000000,4.000000,4.000000,4.000000,100.000000,,,,,,,,,,,,,,,,,,,,,,,,,,,,,,,,,,
1626187391.864119,78.000000,0.000000,2.536297,-4.604083,-65.245956,-4.852920,4.278154,9.878312,-0.439413,7.346720,8.764619,2.787650,6.784424,9.938256,9.122007,4.204490,19.365929,3.100525,1.262966,5.321752,-4.398739,-2.931367,-17.174290,4.072931,6.405755,-6.625514,-11.614398,-17.135283,-16.998606,14.298201,5.835885,-10.476615,-41.829567,-114.076340,0.000000,0.000000,206.000000,3.000000,59.000000,,,,0.000000,4.000000,4.000000,4.000000,4.000000,4.000000,4.000000,4.000000,4.000000,4.000000,4.000000,4.000000,4.000000,4.000000,4.000000,4.000000,4.000000,4.000000,4.000000,4.000000,4.000000,4.000000,4.000000,4.000000,4.000000,4.000000,4.000000,4.000000,4.000000,4.000000,4.000000,4.000000,4.000000,100.000000,,,,,,,,,,,,,,,,,,,,,,,,,,,,,,,,,,
1626187391.872033,79.000000,0.000000,0.484530,3.597444,-63.643784,-5.360374,4.786183,7.819203,-4.537435,0.167066,3.632777,-2.338215,-1.931591,4.292933,9.625193,-6.045868,18.834253,0.023578,-3.349066,-1.343570,-5.418956,-6.002282,-20.230961,2.531935,8.960887,-4.569658,1.204909,-4.310455,-5.198531,17.870056,8.391587,1.829247,-24.369278,-92.445343,0.000000,0.000000,184.000000,3.000000,59.000000,,,,0.000000,4.000000,4.000000,4.000000,4.000000,4.000000,4.000000,4.000000,4.000000,4.000000,4.000000,4.000000,4.000000,4.000000,4.000000,4.000000,4.000000,4.000000,4.000000,4.000000,4.000000,4.000000,4.000000,4.000000,4.000000,4.000000,4.000000,4.000000,4.000000,4.000000,4.000000,4.000000,4.000000,100.000000,,,,,,,,,,,,,,,,,,,,,,,,,,,,,,,,,,
1626187391.879847,80.000000,0.000000,-5.151340,-1.529230,-61.018600,-12.015014,0.682936,-1.410154,-14.779052,-5.980794,1.067606,-7.971261,-12.175814,-7.494437,-5.753663,-16.798285,7.544651,-9.710292,-7.444179,-9.539150,-7.975075,-6.508587,-19.698423,-1.569058,1.267311,-5.077396,16.060627,12.087702,9.663590,17.852186,4.797042,6.438187,0.245861,-79.032898,0.000000,0.000000,205.000000,3.000000,59.000000,,,,0.000000,4.000000,4.000000,4.000000,4.000000,4.000000,4.000000,4.000000,4.000000,4.000000,4.000000,4.000000,4.000000,4.000000,4.000000,4.000000,4.000000,4.000000,4.000000,4.000000,4.000000,4.000000,4.000000,4.000000,4.000000,4.000000,4.000000,4.000000,4.000000,4.000000,4.000000,4.000000,4.000000,100.000000,,,,,,,,,,,,,,,,,,,,,,,,,,,,,,,,,,
1626187391.887760,81.000000,0.000000,-4.633881,-6.650778,-60.445274,-17.638384,-3.416209,-1.408744,-13.227349,-5.462505,5.677307,-8.987906,-3.966715,-5.437712,-4.210986,-8.584563,11.635568,-7.139043,-0.776734,1.228851,-1.307100,4.768691,-9.944879,4.067896,2.802967,0.050759,17.581490,15.149461,12.727774,21.932795,7.353783,6.944056,9.467154,-81.003098,0.000000,0.000000,197.000000,3.000000,59.000000,,,,0.000000,4.000000,4.000000,4.000000,4.000000,4.000000,4.000000,4.000000,4.000000,4.000000,4.000000,4.000000,4.000000,4.000000,4.000000,4.000000,4.000000,4.000000,4.000000,4.000000,4.000000,4.000000,4.000000,4.000000,4.000000,4.000000,4.000000,4.000000,4.000000,4.000000,4.000000,4.000000,4.000000,100.000000,,,,,,,,,,,,,,,,,,,,,,,,,,,,,,,,,,
1626187391.895574,82.000000,0.000000,-1.043093,0.528181,-63.970985,-25.305361,-4.437408,1.154203,-9.115661,-4.432427,3.110092,-10.003532,3.721867,2.252342,9.113225,1.157868,24.943932,3.626558,4.347119,14.035315,7.915746,7.325460,-6.861087,8.162290,14.583241,7.735323,11.928523,11.548157,12.202738,29.083170,11.957199,12.060189,6.896148,-78.360550,0.000000,0.000000,203.000000,3.000000,59.000000,,,,0.000000,4.000000,4.000000,4.000000,4.000000,4.000000,4.000000,4.000000,4.000000,4.000000,4.000000,4.000000,4.000000,4.000000,4.000000,4.000000,4.000000,4.000000,4.000000,4.000000,4.000000,4.000000,4.000000,4.000000,4.000000,4.000000,4.000000,4.000000,4.000000,4.000000,4.000000,4.000000,4.000000,100.000000,,,,,,,,,,,,,,,,,,,,,,,,,,,,,,,,,,
1626187391.903487,83.000000,0.000000,5.617950,6.163037,-61.345474,-28.353901,-1.871432,3.714587,-6.032699,-3.403380,1.570058,-4.870452,2.181222,10.447012,12.177958,2.181325,24.918987,7.209085,7.416618,14.021279,10.981676,4.756597,-6.854227,8.666434,18.154812,12.850665,17.039671,16.147379,20.387459,32.127934,12.969857,15.634282,10.475406,-81.356041,0.000000,0.000000,206.000000,3.000000,59.000000,,,,0.000000,4.000000,4.000000,4.000000,4.000000,4.000000,4.000000,4.000000,4.000000,4.000000,4.000000,4.000000,4.000000,4.000000,4.000000,4.000000,4.000000,4.000000,4.000000,4.000000,4.000000,4.000000,4.000000,4.000000,4.000000,4.000000,4.000000,4.000000,4.000000,4.000000,4.000000,4.000000,4.000000,100.000000,,,,,,,,,,,,,,,,,,,,,,,,,,,,,,,,,,
1626187391.911301,84.000000,0.000000,11.247717,7.181489,-56.161053,-21.153240,2.228901,10.370872,1.145642,-0.838438,11.302335,2.306726,7.302118,19.145796,12.678087,9.863759,26.430992,9.763414,13.044586,13.494950,11.995310,12.436456,-0.187372,15.830076,21.210503,18.473198,30.854940,23.303539,26.514763,36.706573,17.055349,14.594033,13.026468,-93.570068,0.000000,0.000000,197.000000,3.000000,59.000000,,,,0.000000,4.000000,4.000000,4.000000,4.000000,4.000000,4.000000,4.000000,4.000000,4.000000,4.000000,4.000000,4.000000,4.000000,4.000000,4.000000,4.000000,4.000000,4.000000,4.000000,4.000000,4.000000,4.000000,4.000000,4.000000,4.000000,4.000000,4.000000,4.000000,4.000000,4.000000,4.000000,4.000000,100.000000,,,,,,,,,,,,,,,,,,,,,,,,,,,,,,,,,,
1626187391.919215,85.000000,0.000000,8.674931,8.198923,-61.740276,-18.058241,3.251287,12.922040,2.169111,-1.862215,13.852571,-1.281735,10.880970,15.028189,13.690024,12.927742,30.503023,7.192112,10.982311,11.432224,6.860238,14.473249,-0.187185,15.301938,21.701599,15.893188,30.311777,20.718697,20.340555,36.157558,14.989062,10.480977,7.890365,-92.451881,0.000000,0.000000,208.000000,3.000000,59.000000,,,,0.000000,4.000000,4.000000,4.000000,4.000000,4.000000,4.000000,4.000000,4.000000,4.000000,4.000000,4.000000,4.000000,4.000000,4.000000,4.000000,4.000000,4.000000,4.000000,4.000000,4.000000,4.000000,4.000000,4.000000,4.000000,4.000000,4.000000,4.000000,4.000000,4.000000,4.000000,4.000000,4.000000,100.000000,,,,,,,,,,,,,,,,,,,,,,,,,,,,,,,,,,
1626187391.927028,86.000000,0.000000,5.080102,6.141494,-67.313919,-22.650951,2.223421,7.786041,-3.468442,-1.348045,5.129488,-5.891222,2.673166,5.791622,9.577873,0.619430,17.152519,-4.598156,3.286713,4.248484,-1.855854,4.212623,-6.334690,4.528175,12.458360,6.143448,19.010696,11.988747,16.221754,29.461403,6.264843,6.372035,4.808629,-83.137894,0.000000,0.000000,210.000000,3.000000,59.000000,,,,0.000000,4.000000,4.000000,4.000000,4.000000,4.000000,4.000000,4.000000,4.000000,4.000000,4.000000,4.000000,4.000000,4.000000,4.000000,4.000000,4.000000,4.000000,4.000000,4.000000,4.000000,4.000000,4.000000,4.000000,4.000000,4.000000,4.000000,4.000000,4.000000,4.000000,4.000000,4.000000,4.000000,100.000000,,,,,,,,,,,,,,,,,,,,,,,,,,,,,,,,,,
1626187391.934942,87.000000,0.000000,8.148869,9.209198,-63.660454,-21.091377,3.758120,6.753640,-2.440359,2.239457,5.124358,-2.299177,3.182800,11.933523,11.617526,-0.918113,10.987675,-6.130481,6.357273,6.293467,2.756772,5.233025,-2.229894,9.134416,16.544363,11.260382,22.065531,11.464451,22.353224,32.505787,8.307809,8.927201,6.340743,-87.665520,0.000000,0.000000,211.000000,3.000000,59.000000,,,,0.000000,4.000000,4.000000,4.000000,4.000000,4.000000,4.000000,4.000000,4.000000,4.000000,4.000000,4.000000,4.000000,4.000000,4.000000,4.000000,4.000000,4.000000,4.000000,4.000000,4.000000,4.000000,4.000000,4.000000,4.000000,4.000000,4.000000,4.000000,4.000000,4.000000,4.000000,4.000000,4.000000,100.000000,,,,,,,,,,,,,,,,,,,,,,,,,,,,,,,,,,
1626187391.942756,88.000000,0.000000,14.288411,13.810759,-62.059868,-19.021055,3.754362,11.869963,3.709774,3.774141,9.730002,-0.247647,10.351925,21.655436,16.728985,8.304343,25.321302,4.634111,16.597069,16.021019,14.024784,13.424715,5.456952,22.445282,31.897049,24.056812,30.752697,18.625294,24.892410,40.157898,16.496424,11.992120,7.871325,-93.213242,0.000000,0.000000,192.000000,3.000000,59.000000,,,,0.000000,4.000000,4.000000,4.000000,4.000000,4.000000,4.000000,4.000000,4.000000,4.000000,4.000000,4.000000,4.000000,4.000000,4.000000,4.000000,4.000000,4.000000,4.000000,4.000000,4.000000,4.000000,4.000000,4.000000,4.000000,4.000000,4.000000,4.000000,4.000000,4.000000,4.000000,4.000000,4.000000,100.000000,,,,,,,,,,,,,,,,,,,,,,,,,,,,,,,,,,
1626187391.950669,89.000000,0.000000,12.737200,7.136948,-65.071655,-24.125111,0.164454,11.858093,1.656834,1.208828,6.646427,-3.321246,4.706189,16.510702,13.126102,2.660655,26.320597,3.092554,11.969703,13.955768,11.449221,8.288214,1.353033,17.299759,25.717461,20.958910,24.061945,15.532823,17.695210,34.482353,11.869158,8.393974,5.301916,-86.460030,0.000000,0.000000,198.000000,3.000000,59.000000,,,,0.000000,4.000000,4.000000,4.000000,4.000000,4.000000,4.000000,4.000000,4.000000,4.000000,4.000000,4.000000,4.000000,4.000000,4.000000,4.000000,4.000000,4.000000,4.000000,4.000000,4.000000,4.000000,4.000000,4.000000,4.000000,4.000000,4.000000,4.000000,4.000000,4.000000,4.000000,4.000000,4.000000,100.000000,,,,,,,,,,,,,,,,,,,,,,,,,,,,,,,,,,
1626187391.958483,90.000000,0.000000,6.064463,0.469811,-66.031197,-27.687140,-1.884941,7.235466,-3.467900,-0.841611,-0.532528,-6.904078,-0.933902,8.809577,10.039130,-3.489698,17.072737,-2.033616,2.736195,6.769504,4.777771,3.669156,-5.820628,9.085536,13.908666,12.228721,14.304036,5.783443,13.066745,25.738642,5.197289,4.287119,-1.363386,-84.836647,0.000000,0.000000,195.000000,3.000000,59.000000,,,,0.000000,4.000000,4.000000,4.000000,4.000000,4.000000,4.000000,4.000000,4.000000,4.000000,4.000000,4.000000,4.000000,4.000000,4.000000,4.000000,4.000000,4.000000,4.000000,4.000000,4.000000,4.000000,4.000000,4.000000,4.000000,4.000000,4.000000,4.000000,4.000000,4.000000,4.000000,4.000000,4.000000,100.000000,,,,,,,,,,,,,,,,,,,,,,,,,,,,,,,,,,
1626187391.966397,91.000000,0.000000,9.644552,5.592418,-66.989784,-26.634838,-3.932287,6.715923,-3.464432,1.208461,-2.581226,-4.847943,4.702416,11.874614,10.541399,6.247637,24.227972,3.603802,5.807305,11.373504,6.822225,8.788564,-6.327115,12.150297,17.993219,13.241107,13.777425,8.339198,13.565987,28.786749,8.778246,3.258216,-2.386638,-92.948730,0.000000,0.000000,195.000000,3.000000,59.000000,,,,0.000000,4.000000,4.000000,4.000000,4.000000,4.000000,4.000000,4.000000,4.000000,4.000000,4.000000,4.000000,4.000000,4.000000,4.000000,4.000000,4.000000,4.000000,4.000000,4.000000,4.000000,4.000000,4.000000,4.000000,4.000000,4.000000,4.000000,4.000000,4.000000,4.000000,4.000000,4.000000,4.000000,100.000000,,,,,,,,,,,,,,,,,,,,,,,,,,,,,,,,,,
1626187391.974210,92.000000,0.000000,16.807215,9.685287,-67.435104,-26.095896,-5.465278,10.807669,1.149801,3.768791,2.032125,-0.744634,6.746945,15.448893,10.530857,9.827543,25.740667,6.674045,9.387651,12.899054,6.815403,4.169006,-6.320787,13.162762,18.999842,12.715558,17.349800,11.917013,14.064728,34.393345,11.843313,3.767266,-0.847329,-98.491165,0.000000,0.000000,198.000000,3.000000,59.000000,,,,0.000000,4.000000,4.000000,4.000000,4.000000,4.000000,4.000000,4.000000,4.000000,4.000000,4.000000,4.000000,4.000000,4.000000,4.000000,4.000000,4.000000,4.000000,4.000000,4.000000,4.000000,4.000000,4.000000,4.000000,4.000000,4.000000,4.000000,4.000000,4.000000,4.000000,4.000000,4.000000,4.000000,100.000000,1.000000,100.000000,4.000000,4.000000,4.000000,4.000000,4.000000,4.000000,4.000000,4.000000,4.000000,4.000000,4.000000,4.000000,4.000000,4.000000,4.000000,4.000000,4.000000,4.000000,4.000000,4.000000,4.000000,4.000000,4.000000,4.000000,4.000000,4.000000,4.000000,4.000000,4.000000,4.000000,4.000000,4.000000
1626187391.982124,93.000000,0.000000,11.155024,8.138679,-66.343048,-28.119030,-6.996736,9.772245,0.124036,-1.358055,3.567016,-5.354659,0.080198,10.822675,8.983403,-1.453053,11.882619,-0.504937,6.304418,2.640001,1.685510,-5.569009,-6.826775,10.075753,14.882380,7.067458,18.357067,5.245096,10.976817,33.846645,10.294547,5.812729,-6.994174,-98.392677,0.000000,0.000000,199.000000,3.000000,59.000000,,,,0.000000,4.000000,4.000000,4.000000,4.000000,4.000000,4.000000,4.000000,4.000000,4.000000,4.000000,4.000000,4.000000,4.000000,4.000000,4.000000,4.000000,4.000000,4.000000,4.000000,4.000000,4.000000,4.000000,4.000000,4.000000,4.000000,4.000000,4.000000,4.000000,4.000000,4.000000,4.000000,4.000000,100.000000,,,,,,,,,,,,,,,,,,,,,,,,,,,,,,,,,,
1626187391.989938,94.000000,0.000000,6.020792,5.569001,-69.862862,-31.677065,-11.088201,4.639396,-8.585319,-11.602851,-4.633474,-11.496996,-5.555267,5.688775,5.388267,-9.136215,7.772275,-4.602894,5.785805,-1.461101,1.683824,-0.440363,-5.795332,8.528754,16.404421,5.011160,14.240248,4.727543,6.355071,30.738953,8.747330,4.269993,-10.573333,-91.121979,0.000000,0.000000,206.000000,3.000000,59.000000,,,,0.000000,4.000000,4.000000,4.000000,4.000000,4.000000,4.000000,4.000000,4.000000,4.000000,4.000000,4.000000,4.000000,4.000000,4.000000,4.000000,4.000000,4.000000,4.000000,4.000000,4.000000,4.000000,4.000000,4.000000,4.000000,4.000000,4.000000,4.000000,4.000000,4.000000,4.000000,4.000000,4.000000,100.000000,,,,,,,,,,,,,,,,,,,,,,,,,,,,,,,,,,
1626187391.997851,95.000000,0.000000,11.650155,4.026509,-71.842232,-31.645388,-10.052497,5.659372,-12.675195,-12.615863,-5.653456,-9.436269,-5.037404,5.683086,3.333647,-4.004002,15.449119,-2.036752,5.267712,4.175745,5.780602,6.732385,-6.301845,4.934072,16.388016,5.518456,10.639853,9.845893,5.836408,29.683598,11.812428,1.191877,-4.415068,-87.957008,0.000000,0.000000,198.000000,3.000000,59.000000,,,,0.000000,4.000000,4.000000,4.000000,4.000000,4.000000,4.000000,4.000000,4.000000,4.000000,4.000000,4.000000,4.000000,4.000000,4.000000,4.000000,4.000000,4.000000,4.000000,4.000000,4.000000,4.000000,4.000000,4.000000,4.000000,4.000000,4.000000,4.000000,4.000000,4.000000,4.000000,4.000000,4.000000,100.000000,,,,,,,,,,,,,,,,,,,,,,,,,,,,,,,,,,
1626187392.005665,96.000000,0.000000,12.663120,5.047098,-67.671928,-28.539896,-2.870137,9.752174,-9.076365,-7.480170,4.598351,-7.889909,-3.495444,6.189711,5.891852,3.684617,22.093670,1.039131,4.750136,7.757723,6.799437,3.651807,-6.295543,3.392215,16.371628,5.512938,15.239984,6.762200,6.342879,29.141607,13.337539,-0.346238,-3.898345,-102.725975,3968.000000,0.000000,0.000000,3.000000,59.000000,,,,0.000000,4.000000,4.000000,4.000000,4.000000,4.000000,4.000000,4.000000,4.000000,4.000000,4.000000,4.000000,4.000000,4.000000,4.000000,4.000000,4.000000,4.000000,4.000000,4.000000,4.000000,4.000000,4.000000,4.000000,4.000000,4.000000,4.000000,4.000000,4.000000,4.000000,4.000000,4.000000,4.000000,100.000000,,,,,,,,,,,,,,,,,,,,,,,,,,,,,,,,,,
1626187392.013379,97.000000,0.000000,9.064303,3.505128,-69.653488,-32.609818,-7.990344,6.668576,-8.554982,-12.083460,2.032214,-12.492788,-7.590410,7.720444,6.910576,1.119394,24.633114,2.575015,10.380771,7.749965,9.354176,3.648155,-1.678478,7.487284,18.916794,7.556656,17.273973,5.218515,3.774998,26.550926,6.664201,-5.468968,-11.579062,-112.869400,3968.000000,0.000000,0.000000,3.000000,59.000000,,,,0.000000,4.000000,4.000000,4.000000,4.000000,4.000000,4.000000,4.000000,4.000000,4.000000,4.000000,4.000000,4.000000,4.000000,4.000000,4.000000,4.000000,4.000000,4.000000,4.000000,4.000000,4.000000,4.000000,4.000000,4.000000,4.000000,4.000000,4.000000,4.000000,4.000000,4.000000,4.000000,4.000000,100.000000,,,,,,,,,,,,,,,,,,,,,,,,,,,,,,,,,,
1626187392.021192,98.000000,0.000000,12.641394,-0.596839,-79.317680,-42.311054,-16.179276,4.100369,-9.058735,-16.169838,-10.777511,-12.992603,-8.607434,11.298878,8.952896,-2.467879,23.071558,7.183209,14.981159,10.816061,13.443283,9.792199,0.372431,12.090566,18.385571,10.110638,10.084393,6.237912,6.332762,26.012068,2.559076,-10.586576,-16.690559,-101.998070,4096.000000,0.000000,0.000000,3.000000,59.000000,,,,0.000000,4.000000,4.000000,4.000000,4.000000,4.000000,4.000000,4.000000,4.000000,4.000000,4.000000,4.000000,4.000000,4.000000,4.000000,4.000000,4.000000,4.000000,4.000000,4.000000,4.000000,4.000000,4.000000,4.000000,4.000000,4.000000,4.000000,4.000000,4.000000,4.000000,4.000000,4.000000,4.000000,100.000000,,,,,,,,,,,,,,,,,,,,,,,,,,,,,,,,,,
1626187392.028906,99.000000,0.000000,14.165675,4.526835,-81.287590,-40.219513,-7.453866,9.219345,-1.365060,-6.932129,-7.692887,-5.294995,-0.401904,12.312194,15.603943,6.243819,26.634640,12.299103,12.404639,13.366783,10.868301,8.757792,-3.726403,9.004629,17.854877,7.026681,4.438923,0.083982,13.498736,28.547594,8.191901,-5.965220,-18.210793,-97.797615,3968.000000,0.000000,0.000000,3.000000,59.000000,,,,0.000000,4.000000,4.000000,4.000000,4.000000,4.000000,4.000000,4.000000,4.000000,4.000000,4.000000,4.000000,4.000000,4.000000,4.000000,4.000000,4.000000,4.000000,4.000000,4.000000,4.000000,4.000000,4.000000,4.000000,4.000000,4.000000,4.000000,4.000000,4.000000,4.000000,4.000000,4.000000,4.000000,100.000000,,,,,,,,,,,,,,,,,,,,,,,,,,,,,,,,,,
1626187392.036820,100.000000,0.000000,7.491509,9.645385,-69.935532,-20.199293,2.799742,10.234741,2.222459,2.296341,9.220960,-2.215854,1.135421,7.176805,12.002185,9.823730,27.120314,3.065265,5.732235,5.156494,0.098972,-1.497120,-12.431908,-1.250529,12.201637,-5.275731,0.848330,-6.576102,3.751392,23.395969,7.159094,-5.959255,-26.901812,-106.921356,4096.000000,0.000000,0.000000,3.000000,59.000000,,,,0.000000,4.000000,4.000000,4.000000,4.000000,4.000000,4.000000,4.000000,4.000000,4.000000,4.000000,4.000000,4.000000,4.000000,4.000000,4.000000,4.000000,4.000000,4.000000,4.000000,4.000000,4.000000,4.000000,4.000000,4.000000,4.000000,4.000000,4.000000,4.000000,4.000000,4.000000,4.000000,4.000000,100.000000,,,,,,,,,,,,,,,,,,,,,,,,,,,,,,,,,,
1626187392.044633,101.000000,0.000000,2.873249,0.926509,-62.180984,-1.736016,2.796942,4.589122,-3.927456,3.318660,16.384047,-5.287485,-3.988791,3.583474,0.207106,-1.456864,15.822424,-9.745493,-2.470420,-7.144047,-7.585742,-11.229469,-19.591784,-8.421587,-2.667487,-15.004301,-4.275595,-13.229526,-16.744667,11.589498,-2.069604,-19.785604,-45.317986,-106.302124,4096.000000,0.000000,0.000000,3.000000,59.000000,,,,0.000000,4.000000,4.000000,4.000000,4.000000,4.000000,4.000000,4.000000,4.000000,4.000000,4.000000,4.000000,4.000000,4.000000,4.000000,4.000000,4.000000,4.000000,4.000000,4.000000,4.000000,4.000000,4.000000,4.000000,4.000000,4.000000,4.000000,4.000000,4.000000,4.000000,4.000000,4.000000,4.000000,100.000000,,,,,,,,,,,,,,,,,,,,,,,,,,,,,,,,,,
1626187392.052547,102.000000,0.000000,-0.203471,-7.783648,-67.241882,2.876489,3.818760,0.998379,-3.923529,6.901495,13.806124,-4.769889,-3.984803,5.116814,0.719207,-6.066176,14.269678,-7.174209,-4.004873,-7.136903,-3.992003,-8.144394,-18.035269,-7.388549,-3.689435,-11.915450,-4.271319,-21.925528,-20.314077,7.479446,-4.629073,-26.938126,-61.666515,-108.245049,4096.000000,0.000000,0.000000,3.000000,59.000000,,,,0.000000,4.000000,4.000000,4.000000,4.000000,4.000000,4.000000,4.000000,4.000000,4.000000,4.000000,4.000000,4.000000,4.000000,4.000000,4.000000,4.000000,4.000000,4.000000,4.000000,4.000000,4.000000,4.000000,4.000000,4.000000,4.000000,4.000000,4.000000,4.000000,4.000000,4.000000,4.000000,4.000000,100.000000,,,,,,,,,,,,,,,,,,,,,,,,,,,,,,,,,,
1626187392.060361,103.000000,0.000000,-3.277113,-8.800480,-73.322327,6.459766,4.839557,-1.051850,0.178856,10.480748,18.403088,-2.715889,-0.906972,4.087082,4.304641,-2.473956,20.915409,-1.019342,-0.414714,-0.469766,-0.914165,-0.451634,-12.894156,-6.356545,4.511177,-8.829689,-3.754740,-24.465139,-18.756840,10.033505,-6.161366,-24.861958,-70.314079,-115.309113,4096.000000,0.000000,0.000000,3.000000,59.000000,,,,0.000000,4.000000,4.000000,4.000000,4.000000,4.000000,4.000000,4.000000,4.000000,4.000000,4.000000,4.000000,4.000000,4.000000,4.000000,4.000000,4.000000,4.000000,4.000000,4.000000,4.000000,4.000000,4.000000,4.000000,4.000000,4.000000,4.000000,4.000000,4.000000,4.000000,4.000000,4.000000,4.000000,100.000000,,,,,,,,,,,,,,,,,,,,,,,,,,,,,,,,,,
1626187392.068274,104.000000,0.000000,-6.347682,-11.353218,-67.101311,22.847153,4.834717,-3.612337,-3.919784,12.519498,29.655453,-3.737788,-1.930680,-2.064698,-0.310433,-5.545328,11.160646,-5.116785,-7.586607,-5.080066,-10.134789,-5.061952,-21.078184,-11.473266,-6.251796,-18.554705,-12.972524,-27.514521,-30.521160,3.363472,-14.864436,-28.935556,-84.076073,-110.583038,3968.000000,0.000000,0.000000,3.000000,59.000000,,,,0.000000,4.000000,4.000000,4.000000,4.000000,4.000000,4.000000,4.000000,4.000000,4.000000,4.000000,4.000000,4.000000,4.000000,4.000000,4.000000,4.000000,4.000000,4.000000,4.000000,4.000000,4.000000,4.000000,4.000000,4.000000,4.000000,4.000000,4.000000,4.000000,4.000000,4.000000,4.000000,4.000000,100.000000,,,,,,,,,,,,,,,,,,,,,,,,,,,,,,,,,,
1626187392.076088,105.000000,0.000000,-12.489027,-14.415710,-58.837292,37.168922,10.465267,-3.096417,-7.502018,18.654671,33.211952,-0.660204,-3.977980,-9.234941,-1.847045,-9.638245,2.440255,-8.697822,-15.263636,-16.858063,-19.346193,-14.278428,-33.352489,-19.658716,-18.540928,-26.733074,-23.205706,-40.807007,-39.712177,-6.886045,-21.509571,-39.152775,-105.508919,-114.058609,3968.000000,0.000000,0.000000,3.000000,59.000000,,,,0.000000,4.000000,4.000000,4.000000,4.000000,4.000000,4.000000,4.000000,4.000000,4.000000,4.000000,4.000000,4.000000,4.000000,4.000000,4.000000,4.000000,4.000000,4.000000,4.000000,4.000000,4.000000,4.000000,4.000000,4.000000,4.000000,4.000000,4.000000,4.000000,4.000000,4.000000,4.000000,4.000000,100.000000,,,,,,,,,,,,,,,,,,,,,,,,,,,,,,,,,,
1626187392.084002,106.000000,0.000000,-15.038076,-15.938218,-62.364605,35.082520,11.991725,-1.044089,-6.982208,19.660631,27.543356,2.926610,-4.998618,-13.324167,-1.845198,-11.677836,4.999353,-11.250662,-11.149911,-17.865820,-18.302231,-13.751842,-31.269909,-20.151365,-13.399310,-24.144802,-28.305576,-50.500046,-40.697079,-6.879159,-18.926523,-45.261314,-118.723412,-132.899933,3968.000000,0.000000,0.000000,3.000000,59.000000,,,,0.000000,4.000000,4.000000,4.000000,4.000000,4.000000,4.000000,4.000000,4.000000,4.000000,4.000000,4.000000,4.000000,4.000000,4.000000,4.000000,4.000000,4.000000,4.000000,4.000000,4.000000,4.000000,4.000000,4.000000,4.000000,4.000000,4.000000,4.000000,4.000000,4.000000,4.000000,4.000000,4.000000,100.000000,,,,,,,,,,,,,,,,,,,,,,,,,,,,,,,,,,
1626187392.091815,107.000000,0.000000,-7.850731,-15.409972,-68.449936,28.387438,7.368964,0.493878,-5.950611,14.005587,24.441965,-3.224009,-2.944388,-10.749305,-6.454122,-13.203082,2.432816,-16.362488,-9.601838,-14.261801,-16.747005,-16.299629,-30.214024,-12.958906,-9.799757,-21.559118,-32.375732,-50.961853,-44.242538,-0.212280,-12.759905,-42.142208,-119.116997,-130.717804,3968.000000,0.000000,0.000000,3.000000,59.000000,,,,0.000000,4.000000,4.000000,4.000000,4.000000,4.000000,4.000000,4.000000,4.000000,4.000000,4.000000,4.000000,4.000000,4.000000,4.000000,4.000000,4.000000,4.000000,4.000000,4.000000,4.000000,4.000000,4.000000,4.000000,4.000000,4.000000,4.000000,4.000000,4.000000,4.000000,4.000000,4.000000,4.000000,100.000000,,,,,,,,,,,,,,,,,,,,,,,,,,,,,,,,,,
1626187392.099729,108.000000,0.000000,-3.744419,-11.296101,-66.332253,29.895975,9.410826,2.542615,-2.358506,14.503888,28.515985,-7.319247,-2.429136,-6.640094,-4.910745,-12.677571,-1.155771,-16.858433,-11.129159,-16.809076,-20.316412,-23.455637,-39.405346,-12.945947,-9.789958,-23.074482,-31.831049,-48.349354,-44.198296,1.837163,-9.673299,-34.415451,-116.436340,-116.242470,3968.000000,0.000000,0.000000,3.000000,59.000000,,,,0.000000,4.000000,4.000000,4.000000,4.000000,4.000000,4.000000,4.000000,4.000000,4.000000,4.000000,4.000000,4.000000,4.000000,4.000000,4.000000,4.000000,4.000000,4.000000,4.000000,4.000000,4.000000,4.000000,4.000000,4.000000,4.000000,4.000000,4.000000,4.000000,4.000000,4.000000,4.000000,4.000000,100.000000,,,,,,,,,,,,,,,,,,,,,,,,,,,,,,,,,,
1626187392.107543,109.000000,0.000000,-8.863751,-12.821728,-68.827461,30.890694,9.913723,1.515457,-2.868456,16.026308,30.536699,-1.676543,-4.475938,-8.682685,-4.393527,-13.689509,0.894616,-15.304652,-10.093414,-18.329191,-23.882250,-20.358335,-41.415173,-19.080692,-8.243244,-25.612947,-29.237680,-49.325619,-44.154095,-3.800059,-13.762087,-40.528725,-118.881439,-123.298538,3968.000000,0.000000,0.000000,3.000000,59.000000,,,,0.000000,4.000000,4.000000,4.000000,4.000000,4.000000,4.000000,4.000000,4.000000,4.000000,4.000000,4.000000,4.000000,4.000000,4.000000,4.000000,4.000000,4.000000,4.000000,4.000000,4.000000,4.000000,4.000000,4.000000,4.000000,4.000000,4.000000,4.000000,4.000000,4.000000,4.000000,4.000000,4.000000,100.000000,,,,,,,,,,,,,,,,,,,,,,,,,,,,,,,,,,
